* Sea-Bird SBE19plus  Data File:
* FileName = C:\Users\dcastle\Documents\CTD\SBE19plus_01908200_2024_03_27_0001.hex
* Software version 2.8.0.119
* Temperature SN = 8200
* Conductivity SN = 8200
* System UpLoad Time = Mar 27 2024 14:46:47
* <ApplicationData>
* <Seaterm232>
* <SoftwareVersion>2.8.0.119</SoftwareVersion>
* <BuildDate>07-Nov-2018</BuildDate>
* </Seaterm232>
* </ApplicationData>
* <InstrumentState>
* <HardwareData DeviceType='SBE19plus' SerialNumber='01908200'>
*
*    <Manufacturer>Sea-Bird Electronics, Inc.</Manufacturer>
*
*    <FirmwareVersion>3.1.8</FirmwareVersion>
*
*    <FirmwareDate>Mar  9 2016 16:22:29</FirmwareDate>
*
*    <CommandSetVersion>1.4</CommandSetVersion>
*
*    <PCBAssembly PCBSerialNum='262471' AssemblyNum='41054K'/>
*
*    <PCBAssembly PCBSerialNum='262475' AssemblyNum='41059E'/>
*
*    <PCBAssembly PCBSerialNum='262477' AssemblyNum='41606B'/>
*
*    <PCBAssembly PCBSerialNum='262473' AssemblyNum='41967C'/>
*
*    <MfgDate>15 Jun 2022</MfgDate>
*
*    <InternalSensors>
*
*       <Sensor id='Main Temperature'>
*
*          <type>temperature0</type>
*
*          <SerialNumber>01908200</SerialNumber>
*
*       </Sensor>
*
*       <Sensor id='Main Conductivity'>
*
*          <type>conductivity-0</type>
*
*          <SerialNumber>01908200</SerialNumber>
*
*       </Sensor>
*
*       <Sensor id='Main Pressure'>
*
*          <type>strain-0</type>
*
*          <SerialNumber>12287607</SerialNumber>
*
*       </Sensor>
*
*    </InternalSensors>
*
*    <ExternalSensors>
*
*       <Sensor id='volt 0'>
*
*          <type>not assigned</type>
*
*          <SerialNumber>not assigned</SerialNumber>
*
*       </Sensor>
*
*       <Sensor id='volt 1'>
*
*          <type>not assigned</type>
*
*          <SerialNumber>not assigned</SerialNumber>
*
*       </Sensor>
*
*       <Sensor id='volt 2'>
*
*          <type>not assigned</type>
*
*          <SerialNumber>not assigned</SerialNumber>
*
*       </Sensor>
*
*       <Sensor id='volt 3'>
*
*          <type>not assigned</type>
*
*          <SerialNumber>not assigned</SerialNumber>
*
*       </Sensor>
*
*       <Sensor id='volt 4'>
*
*          <type>not assigned</type>
*
*          <SerialNumber>not assigned</SerialNumber>
*
*       </Sensor>
*
*       <Sensor id='volt 5'>
*
*          <type>not assigned</type>
*
*          <SerialNumber>not assigned</SerialNumber>
*
*       </Sensor>
*
*       <Sensor id='serial'>
*
*          <type>not assigned</type>
*
*          <SerialNumber>not assigned</SerialNumber>
*
*       </Sensor>
*
*    </ExternalSensors>
*
* </HardwareData>
* <StatusData DeviceType='SBE19plus' SerialNumber='01908200'>
*
*    <DateTime>2024-03-27T14:46:06</DateTime>
*
*    <LoggingState>not logging</LoggingState>
*
*    <EventSummary numEvents='0'/>
*
*    <Power>
*
*       <vMain>12.5</vMain>
*
*       <vLith>8.4</vLith>
*
*       <iMain>61.4</iMain>
*
*       <iPump>62.1</iPump>
*
*       <iExt01>16.4</iExt01>
*
*       <iExt2345>95.1</iExt2345>
*
*    </Power>
*
*    <MemorySummary>
*
*       <Bytes>315307</Bytes>
*
*       <Samples>13709</Samples>
*
*       <SamplesFree>2847079</SamplesFree>
*
*       <SampleLength>23</SampleLength>
*
*       <Profiles>10</Profiles>
*
*    </MemorySummary>
*
* </StatusData>
* <ConfigurationData DeviceType='SBE19plus' SerialNumber='01908200'>
*
*    <ProfileMode>
*
*       <ScansToAverage>1</ScansToAverage>
*
*       <MinimumCondFreq>2645</MinimumCondFreq>
*
*       <PumpDelay>60</PumpDelay>
*
*       <AutoRun>no</AutoRun>
*
*       <IgnoreSwitch>no</IgnoreSwitch>
*
*    </ProfileMode>
*
*    <Battery>
*
*       <Type>alkaline</Type>
*
*       <CutOff>7.5</CutOff>
*
*    </Battery>
*
*    <DataChannels>
*
*       <ExtVolt0>yes</ExtVolt0>
*
*       <ExtVolt1>yes</ExtVolt1>
*
*       <ExtVolt2>yes</ExtVolt2>
*
*       <ExtVolt3>yes</ExtVolt3>
*
*       <ExtVolt4>yes</ExtVolt4>
*
*       <ExtVolt5>yes</ExtVolt5>
*
*       <SBE38>no</SBE38>
*
*       <WETLABS>no</WETLABS>
*
*       <OPTODE>no</OPTODE>
*
*       <SBE63>no</SBE63>
*
*       <SeaFET>no</SeaFET>
*
*       <GTD>no</GTD>
*
*    </DataChannels>
*
*    <EchoCharacters>yes</EchoCharacters>
*
*    <OutputExecutedTag>yes</OutputExecutedTag>
*
*    <OutputFormat>raw HEX</OutputFormat>
*
* </ConfigurationData>
* <CalibrationCoefficients DeviceType='SBE19plus' SerialNumber='01908200'>
*
*    <Calibration format='TEMP1' id='Main Temperature'>
*
*       <SerialNum>01908200</SerialNum>
*
*       <CalDate>01-Jul-22</CalDate>
*
*       <TA0>1.273074e-03</TA0>
*
*       <TA1>2.634339e-04</TA1>
*
*       <TA2>6.102413e-07</TA2>
*
*       <TA3>1.045053e-07</TA3>
*
*       <TOFFSET>0.000000e+00</TOFFSET>
*
*    </Calibration>
*
*    <Calibration format='WBCOND0' id='Main Conductivity'>
*
*       <SerialNum>01908200</SerialNum>
*
*       <CalDate>01-Jul-22</CalDate>
*
*       <G>-1.000954e+00</G>
*
*       <H>1.438363e-01</H>
*
*       <I>-2.457737e-04</I>
*
*       <J>4.045354e-05</J>
*
*       <CPCOR>-9.570000e-08</CPCOR>
*
*       <CTCOR>3.250000e-06</CTCOR>
*
*       <CSLOPE>1.000000e+00</CSLOPE>
*
*    </Calibration>
*
*    <Calibration format='STRAIN0' id='Main Pressure'>
*
*       <SerialNum>12287607</SerialNum>
*
*       <CalDate>20-Jun-22</CalDate>
*
*       <PA0>5.417929e-02</PA0>
*
*       <PA1>1.544327e-03</PA1>
*
*       <PA2>5.749058e-12</PA2>
*
*       <PTCA0>5.243616e+05</PTCA0>
*
*       <PTCA1>5.371927e+00</PTCA1>
*
*       <PTCA2>-1.739922e-01</PTCA2>
*
*       <PTCB0>2.506713e+01</PTCB0>
*
*       <PTCB1>-5.750000e-04</PTCB1>
*
*       <PTCB2>0.000000e+00</PTCB2>
*
*       <PTEMPA0>-6.303813e+01</PTEMPA0>
*
*       <PTEMPA1>5.003359e+01</PTEMPA1>
*
*       <PTEMPA2>-6.230146e-02</PTEMPA2>
*
*       <POFFSET>0.000000e+00</POFFSET>
*
*       <PRANGE>5.080000e+02</PRANGE>
*
*    </Calibration>
*
*    <Calibration format='VOLT0' id='Volt 0'>
*
*       <OFFSET>-4.688400e-02</OFFSET>
*
*       <SLOPE>1.251355e+00</SLOPE>
*
*    </Calibration>
*
*    <Calibration format='VOLT0' id='Volt 1'>
*
*       <OFFSET>-4.659100e-02</OFFSET>
*
*       <SLOPE>1.252580e+00</SLOPE>
*
*    </Calibration>
*
*    <Calibration format='VOLT0' id='Volt 2'>
*
*       <OFFSET>-4.627400e-02</OFFSET>
*
*       <SLOPE>1.252280e+00</SLOPE>
*
*    </Calibration>
*
*    <Calibration format='VOLT0' id='Volt 3'>
*
*       <OFFSET>-4.753100e-02</OFFSET>
*
*       <SLOPE>1.251494e+00</SLOPE>
*
*    </Calibration>
*
*    <Calibration format='VOLT0' id='Volt 4'>
*
*       <OFFSET>-4.641400e-02</OFFSET>
*
*       <SLOPE>1.250582e+00</SLOPE>
*
*    </Calibration>
*
*    <Calibration format='VOLT0' id='Volt 5'>
*
*       <OFFSET>-4.738800e-02</OFFSET>
*
*       <SLOPE>1.251858e+00</SLOPE>
*
*    </Calibration>
*
*    <Calibration format='FREQ0' id='external frequency channel'>
*
*       <EXTFREQSF>1.000018e+00</EXTFREQSF>
*
*    </Calibration>
*
* </CalibrationCoefficients>
* <EventCounters DeviceType='SBE19plus' SerialNumber='01908200'>
*
*    <EventSummary numEvents='0'/>
*
* </EventCounters></InstrumentState>
* <Headers>
*
* cast   1 21 Mar 2024 09:13:32 samples 1 to 982, avg = 1, stop = mag switch
*
# nquan = 16
# nvalues = 791                                   
# units = specified
# name 0 = depFM: Depth [fresh water, m]
# name 1 = tv290C: Temperature [ITS-90, deg C]
# name 2 = tv268C: Temperature [IPTS-68, deg C]
# name 3 = specc: Specific Conductance [uS/cm]
# name 4 = c0uS/cm: Conductivity [uS/cm]
# name 5 = prdE: Pressure, Strain Gauge [psi]
# name 6 = sbeox0Mg/L: Oxygen, SBE 43 [mg/l]
# name 7 = sbeox0PS: Oxygen, SBE 43 [% saturation]
# name 8 = oxsolMg/L: Oxygen Saturation, Garcia & Gordon [mg/l]
# name 9 = oxsatMg/L: Oxygen Saturation, Weiss [mg/l]
# name 10 = par/sat/log: PAR/Logarithmic, Satlantic [umol photons/m^2/sec]
# name 11 = flCM: Fluorescence, Chelsea Mini Chl Con [ug/l]
# name 12 = CStarAt0: Beam Attenuation, WET Labs C-Star [1/m]
# name 13 = CStarTr0: Beam Transmission, WET Labs C-Star [%]
# name 14 = density00: Density [density, kg/m^3]
# name 15 = flag:  0.000e+00
# span 0 =     -0.510,     14.799                 
# span 1 =     9.9438,    17.7499                 
# span 2 =     9.9462,    17.7542                 
# span 3 =      0.457,    185.469                 
# span 4 =   0.349403, 129.658347                 
# span 5 =     -0.726,     21.049                 
# span 6 =    -0.8827,    10.2119                 
# span 7 =     -8.326,    104.694                 
# span 8 =    9.51308,   11.29757                 
# span 9 =    9.49850,   11.28650                 
# span 10 = 1.1263e-01, 2.3380e+03                
# span 11 =    -0.3612,    29.3449                
# span 12 =     1.3949,    13.3860                
# span 13 =     3.5208,    70.5592                
# span 14 =   998.6846,   999.8438                
# span 15 = 0.0000e+00, 0.0000e+00                
# interval = seconds: 0.25
# start_time = Mar 21 2024 09:13:32 [Instrument's time stamp, header]
# bad_flag = -9.990e-29
# <Sensors count="9" >
#   <sensor Channel="1" >
#     <!-- Count, Temperature -->
#     <TemperatureSensor SensorID="58" >
#       <SerialNumber>8200</SerialNumber>
#       <CalibrationDate>01-Jul-22</CalibrationDate>
#       <A0>1.27307364e-003</A0>
#       <A1>2.63433881e-004</A1>
#       <A2>6.10241346e-007</A2>
#       <A3>1.04505265e-007</A3>
#       <Slope>1.00000000</Slope>
#       <Offset>0.0000</Offset>
#     </TemperatureSensor>
#   </sensor>
#   <sensor Channel="2" >
#     <!-- Frequency 0, Conductivity -->
#     <ConductivitySensor SensorID="3" >
#       <SerialNumber>8200</SerialNumber>
#       <CalibrationDate>01-Jul-22</CalibrationDate>
#       <UseG_J>1</UseG_J>
#       <!-- Cell const and series R are applicable only for wide range sensors. -->
#       <SeriesR>0.0000</SeriesR>
#       <CellConst>2000.0000</CellConst>
#       <ConductivityType>0</ConductivityType>
#       <Coefficients equation="0" >
#         <A>0.00000000e+000</A>
#         <B>0.00000000e+000</B>
#         <C>0.00000000e+000</C>
#         <D>0.00000000e+000</D>
#         <M>0.0</M>
#         <CPcor>-9.57000000e-008</CPcor>
#       </Coefficients>
#       <Coefficients equation="1" >
#         <G>-1.00095430e+000</G>
#         <H>1.43836252e-001</H>
#         <I>-2.45773667e-004</I>
#         <J>4.04535414e-005</J>
#         <CPcor>-9.57000000e-008</CPcor>
#         <CTcor>3.2500e-006</CTcor>
#         <!-- WBOTC not applicable unless ConductivityType = 1. -->
#         <WBOTC>0.00000000e+000</WBOTC>
#       </Coefficients>
#       <Slope>1.00000000</Slope>
#       <Offset>0.00000</Offset>
#     </ConductivitySensor>
#   </sensor>
#   <sensor Channel="3" >
#     <!-- Count, Pressure, Strain Gauge -->
#     <PressureSensor SensorID="46" >
#       <SerialNumber>8200</SerialNumber>
#       <CalibrationDate>20-Jun-22</CalibrationDate>
#       <PA0>5.41792865e-002</PA0>
#       <PA1>1.54432654e-003</PA1>
#       <PA2>5.74905779e-012</PA2>
#       <PTEMPA0>-6.30381273e+001</PTEMPA0>
#       <PTEMPA1>5.00335947e+001</PTEMPA1>
#       <PTEMPA2>-6.23014614e-002</PTEMPA2>
#       <PTCA0>5.24361650e+005</PTCA0>
#       <PTCA1>5.37192737e+000</PTCA1>
#       <PTCA2>-1.73992204e-001</PTCA2>
#       <PTCB0>2.50671250e+001</PTCB0>
#       <PTCB1>-5.75000000e-004</PTCB1>
#       <PTCB2>0.00000000e+000</PTCB2>
#       <Offset>0.000000</Offset>
#     </PressureSensor>
#   </sensor>
#   <sensor Channel="4" >
#     <!-- A/D voltage 0, PAR/Logarithmic, Satlantic -->
#     <PARLog_SatlanticSensor SensorID="76" >
#       <SerialNumber>2214</SerialNumber>
#       <CalibrationDate>5/20/22</CalibrationDate>
#       <a0>9.9290e-001</a0>
#       <a1>8.0312e-001</a1>
#       <Im>1.3589e+000</Im>
#       <ConversionUnits>1</ConversionUnits>
#       <Multiplier>1.0000e+000</Multiplier>
#     </PARLog_SatlanticSensor>
#   </sensor>
#   <sensor Channel="5" >
#     <!-- A/D voltage 1, Free -->
#   </sensor>
#   <sensor Channel="6" >
#     <!-- A/D voltage 2, Oxygen, SBE 43 -->
#     <OxygenSensor SensorID="38" >
#       <SerialNumber>0268</SerialNumber>
#       <CalibrationDate>29-Feb-20</CalibrationDate>
#       <Use2007Equation>1</Use2007Equation>
#       <CalibrationCoefficients equation="0" >
#         <!-- Coefficients for Owens-Millard equation. -->
#         <Boc>0.0000</Boc>
#         <Soc>0.0000e+000</Soc>
#         <offset>0.0000</offset>
#         <Pcor>0.00e+000</Pcor>
#         <Tcor>0.0000</Tcor>
#         <Tau>0.0</Tau>
#       </CalibrationCoefficients>
#       <CalibrationCoefficients equation="1" >
#         <!-- Coefficients for Sea-Bird equation - SBE calibration in 2007 and later. -->
#         <Soc>5.4910e-001</Soc>
#         <offset>-0.4386</offset>
#         <A>-3.6337e-003</A>
#         <B> 1.0518e-004</B>
#         <C>-1.0368e-006</C>
#         <D0> 2.5826e+000</D0>
#         <D1> 1.92634e-004</D1>
#         <D2>-4.64803e-002</D2>
#         <E> 3.6000e-002</E>
#         <Tau20> 1.2800</Tau20>
#         <H1>-3.3000e-002</H1>
#         <H2> 5.0000e+003</H2>
#         <H3> 1.4500e+003</H3>
#       </CalibrationCoefficients>
#     </OxygenSensor>
#   </sensor>
#   <sensor Channel="7" >
#     <!-- A/D voltage 3, Transmissometer, WET Labs C-Star -->
#     <WET_LabsCStar SensorID="71" >
#       <SerialNumber>CST-612PR</SerialNumber>
#       <CalibrationDate>6/27/02</CalibrationDate>
#       <M>19.4066</M>
#       <B>-1.1062</B>
#       <PathLength>0.250</PathLength>
#     </WET_LabsCStar>
#   </sensor>
#   <sensor Channel="8" >
#     <!-- A/D voltage 4, Fluorometer, Chelsea Minitracka -->
#     <FluoroChelseaMinitrackaSensor SensorID="6" >
#       <SerialNumber>175011</SerialNumber>
#       <CalibrationDate>26-Mar-97</CalibrationDate>
#       <Vacetone>0.013</Vacetone>
#       <Vacetone100>3.612</Vacetone100>
#       <Offset>0.000</Offset>
#     </FluoroChelseaMinitrackaSensor>
#   </sensor>
#   <sensor Channel="9" >
#     <!-- A/D voltage 5, Free -->
#   </sensor>
# </Sensors>
# datcnv_date = Jun 05 2024 15:40:42, 7.26.7.129 [datcnv_vars = 15]
# datcnv_in = C:\Users\ir64\OneDrive - The University of Waikato\Documents\Sampling\CTD casts\2024.03 CTD casts\2024.03 HEX files\2024.03.22 second sampling\2024.03 Okaro 1 0001.hex C:\Users\ir64\OneDrive - The University of Waikato\Documents\Sampling\CTD casts\2024.03 CTD casts\2024.03 HEX files\2024.03.22 second sampling\CTD#3 for March 2024 deploymentV7.xmlcon
# datcnv_skipover = 0
# datcnv_ox_hysteresis_correction = yes
# datcnv_ox_tau_correction = yes
# file_type = ascii
*END*
     -0.506    13.4220    13.4253      0.570   0.438192     -0.720    10.1533     97.273   10.43798   10.42601 2.1276e+03    -0.2171     1.5038    68.6640   999.3273  0.000e+00
     -0.506    13.4124    13.4156      0.493   0.378999     -0.720    10.1569     97.286   10.44021   10.42824 2.1407e+03    -0.1683     1.4804    69.0667   999.3286  0.000e+00
     -0.505    13.4000    13.4033      0.571   0.438192     -0.718    10.1688     97.374   10.44308   10.43112 2.1430e+03    -0.1789     1.4367    69.8248   999.3302  0.000e+00
     -0.508    13.3882    13.3914      0.571   0.438192     -0.723    10.1671     97.332   10.44582   10.43387 2.1562e+03    -0.1683     1.4050    70.3815   999.3318  0.000e+00
     -0.507    13.3796    13.3828      0.494   0.378999     -0.721    10.1765     97.403   10.44781   10.43586 2.1928e+03    -0.1619     1.3979    70.5059   999.3329  0.000e+00
     -0.509    13.3728    13.3760      0.571   0.438192     -0.724    10.1813     97.435   10.44940   10.43745 2.1638e+03    -0.1704     1.4027    70.4215   999.3338  0.000e+00
     -0.506    13.3663    13.3695      0.494   0.378999     -0.720    10.1758     97.368   10.45090   10.43896 2.1077e+03    -0.2637     1.4087    70.3164   999.3346  0.000e+00
     -0.507    13.3571    13.3603      0.494   0.378999     -0.721    10.1830     97.416   10.45305   10.44111 1.9644e+03    -0.1619     1.4101    70.2912   999.3358  0.000e+00
     -0.507    13.3466    13.3498      0.494   0.378999     -0.721    10.1861     97.423   10.45547   10.44353 2.3050e+03    -0.2001     1.4095    70.3016   999.3372  0.000e+00
     -0.507    13.3371    13.3403      0.494   0.378999     -0.721    10.1877     97.419   10.45768   10.44575 2.3135e+03    -0.1768     1.4061    70.3623   999.3384  0.000e+00
     -0.508    13.3287    13.3319      0.494   0.378999     -0.723    10.1857     97.381   10.45963   10.44770 2.3212e+03    -0.2595     1.4054    70.3741   999.3395  0.000e+00
     -0.508    13.3199    13.3231      0.494   0.378999     -0.723    10.1832     97.338   10.46167   10.44975 2.3380e+03    -0.1280     1.4041    70.3963   999.3407  0.000e+00
     -0.507    13.3115    13.3147      0.495   0.378999     -0.721    10.1816     97.305   10.46363   10.45171 2.2784e+03    -0.1323     1.4034    70.4082   999.3418  0.000e+00
     -0.508    13.3039    13.3071      0.495   0.378999     -0.723    10.1857     97.328   10.46541   10.45349 2.2869e+03    -0.3612     1.4044    70.3919   999.3428  0.000e+00
     -0.508    13.2965    13.2997      0.495   0.378999     -0.723    10.1873     97.327   10.46712   10.45521 2.2354e+03    -0.3612     1.4074    70.3386   999.3437  0.000e+00
     -0.506    13.2882    13.2914      0.495   0.378999     -0.720    10.1878     97.313   10.46906   10.45715 2.2408e+03    -0.3612     1.4067    70.3504   999.3448  0.000e+00
     -0.508    13.2793    13.2825      0.495   0.378999     -0.723    10.1835     97.253   10.47113   10.45922 2.1327e+03     0.1412     1.4023    70.4289   999.3460  0.000e+00
     -0.510    13.2693    13.2725      0.495   0.378999     -0.726    10.1967     97.357   10.47345   10.46155 1.9907e+03     0.3553     1.3991    70.4852   999.3472  0.000e+00
     -0.509    13.2635    13.2667      0.495   0.378999     -0.724    10.2020     97.396   10.47480   10.46290 1.8356e+03     1.3898     1.3960    70.5385   999.3480  0.000e+00
     -0.509    13.2580    13.2612      0.495   0.378999     -0.724    10.2103     97.463   10.47610   10.46420 1.4264e+03     1.4598     1.3955    70.5473   999.3487  0.000e+00
     -0.509    13.2507    13.2539      0.457   0.349403     -0.724    10.2061     97.407   10.47779   10.46590 1.0105e+03     1.0358     1.3949    70.5592   999.3497  0.000e+00
     -0.508    13.2468    13.2500      0.495   0.378999     -0.723    10.2119     97.454   10.47871   10.46681 1.0616e+02     0.8323     1.3957    70.5444   999.3502  0.000e+00
     -0.405    13.3908    13.3940     89.603  68.804014     -0.576    10.1661     97.350   10.44283   10.43088 8.7395e+01     0.3702     1.3964    70.5325   999.3607  0.000e+00
     -0.250    14.5881    14.5916    118.227  93.616298     -0.355     9.8917     97.254   10.17093   10.15839 9.2915e+01    -0.3612     7.8356    14.1013   999.2056  0.000e+00
     -0.136    15.6955    15.6993    111.576  90.821177     -0.193     9.6470     97.136    9.93144    9.91825 9.0825e+01    -0.3612    13.3860     3.5208   999.0350  0.000e+00
     -0.018    16.5128    16.5168    105.727  87.788743     -0.026     9.4636     96.952    9.76112    9.74739 5.5412e+01     1.3135     5.7723    23.6203   998.8998  0.000e+00
      0.036    17.0247    17.0287    103.307  86.837417      0.051     9.3508     96.828    9.65709    9.64301 4.6111e+01     1.4661     4.6222    31.4884   998.8117  0.000e+00
      0.082    17.2594    17.2635    101.749  86.005105      0.116     9.3200     96.982    9.61005    9.59581 4.2211e+01     1.6781     2.2804    56.5465   998.7702  0.000e+00
      0.109    17.3879    17.3920    102.387  86.807591      0.155     9.3307     97.353    9.58445    9.57012 5.0559e+01     2.2208     6.9062    17.7896   998.7477  0.000e+00
      0.112    17.4729    17.4771    101.972  86.629227      0.159     9.3543     97.770    9.56759    9.55320 4.2165e+01     2.2335     3.9840    36.9356   998.7324  0.000e+00
      0.145    17.5190    17.5232    101.127  86.005033      0.206     9.3917     98.255    9.55848    9.54405 4.5770e+01     2.1784     3.5009    41.6766   998.7240  0.000e+00
