* Sea-Bird SBE19plus Data File:
* FileName = C:\Users\instrument\Desktop\Iola Rosa. CTD Casts\February 2024\Feb143.hex
* Software Version 1.59
* Temperature SN =  4268
* Conductivity SN =  4268
* System UpLoad Time = Feb 26 2024 13:59:39
* ds
* SeacatPlus V 1.6  SERIAL NO. 4268    26 Feb 2024  13:53:56
* vbatt = 12.7, vlith =  7.9, ioper =  61.6 ma, ipump =  85.0 ma,
* iext01 =  39.7 ma
* iext23 =  52.7 ma
*
* status = not logging
* number of scans to average = 1
* samples = 213406, free = 227668, casts = 152
* mode = profile, minimum cond freq = 2567, pump delay = 60 sec
* autorun = no, ignore magnetic switch = no
* battery type = alkaline, battery cutoff =  7.3 volts
* pressure sensor = strain gauge, range = 508.0
* SBE 38 = no, Gas Tension Device = no
* Ext Volt 0 = yes, Ext Volt 1 = yes, Ext Volt 2 = yes, Ext Volt 3 = yes
* echo commands = yes
* output format = raw HEX

* S>
*
* SeacatPlus V 1.6  SERIAL NO. 4268    26 Feb 2024  13:55:03
* temperature:  06-dec-05
*     TA0 = 1.161749e-03
*     TA1 = 2.891779e-04
*     TA2 = -3.393560e-06
*     TA3 = 2.889319e-07
*     TOFFSET = 0.000000e+00
* conductivity:  06-dec-05
*     G = -9.977815e-01
*     H = 1.528486e-01
*     I = -4.694078e-04
*     J = 6.039801e-05
*     CF0 = 2.561972e+03
*     CPCOR = -9.570000e-08
*     CTCOR = 3.250000e-06
*     CSLOPE = 1.000000e+00
* pressure S/N = 1980, range = 508 psia:  22-nov-05
*     PA0 = 1.166340e-01
*     PA1 = 1.562008e-03
*     PA2 = 7.521856e-12
*     PTCA0 = 5.244793e+05
*     PTCA1 = 6.705477e+00
*     PTCA2 = -1.525623e-01
*     PTCB0 = 2.485325e+01
*     PTCB1 = -3.500000e-04
*     PTCB2 = 0.000000e+00
*     PTEMPA0 = -7.187026e+01
*     PTEMPA1 = 4.819360e+01
*     PTEMPA2 = -2.287845e-02
*     POFFSET = 0.000000e+00
* volt 0: offset = -4.716333e-02, slope = 1.249825e+00
* volt 1: offset = -4.705000e-02, slope = 1.250722e+00
* volt 2: offset = -4.720000e-02, slope = 1.250906e+00
* volt 3: offset = 0.000000e+00, slope = 1.000000e+00
*     EXTFREQSF = 1.000004e+00
* dh
* cast 143 22 Feb 2024 09:31:04 samples 200708 to 201615, avg = 1, stop = mag switch

* S>
# nquan = 16
# nvalues = 760                                   
# units = specified
# name 0 = depFM: Depth [fresh water, m]
# name 1 = tv290C: Temperature [ITS-90, deg C]
# name 2 = tv268C: Temperature [IPTS-68, deg C]
# name 3 = specc: Specific Conductance [uS/cm]
# name 4 = c0uS/cm: Conductivity [uS/cm]
# name 5 = prdE: Pressure, Strain Gauge [psi]
# name 6 = sbeox0Mg/L: Oxygen, SBE 43 [mg/l]
# name 7 = sbeox0PS: Oxygen, SBE 43 [% saturation]
# name 8 = oxsolMg/L: Oxygen Saturation, Garcia & Gordon [mg/l]
# name 9 = oxsatMg/L: Oxygen Saturation, Weiss [mg/l]
# name 10 = par: PAR/Irradiance, Biospherical/Licor
# name 11 = flCM: Fluorescence, Chelsea Mini Chl Con [ug/l]
# name 12 = bat: Beam Attenuation, Chelsea/Seatech [1/m]
# name 13 = xmiss: Beam Transmission, Chelsea/Seatech [%]
# name 14 = density00: Density [density, kg/m^3]
# name 15 = flag:  0.000e+00
# span 0 =     -0.634,     15.134                 
# span 1 =     9.8450,    22.7236                 
# span 2 =     9.8473,    22.7290                 
# span 3 =     -2.299,    295.656                 
# span 4 =  -2.029214, 277.048872                 
# span 5 =     -0.902,     21.525                 
# span 6 =    -0.6501,     9.4426                 
# span 7 =     -6.296,    109.402                 
# span 8 =    8.62070,   11.32593                 
# span 9 =    8.60250,   11.31485                 
# span 10 = 8.8294e-02, 6.2143e+02                
# span 11 =    -0.3612,    38.7382                
# span 12 =     1.4383,    11.1441                
# span 13 =     6.1666,    69.7981                
# span 14 =   997.6445,   999.8249                
# span 15 = 0.0000e+00, 0.0000e+00                
# interval = seconds: 0.25
# start_time = Feb 22 2024 09:31:04 [Instrument's time stamp, header]
# bad_flag = -9.990e-29
# <Sensors count="7" >
#   <sensor Channel="1" >
#     <!-- Count, Temperature -->
#     <TemperatureSensor SensorID="58" >
#       <SerialNumber>4268</SerialNumber>
#       <CalibrationDate>06-Dec-05</CalibrationDate>
#       <A0>1.16174900e-003</A0>
#       <A1>2.89177900e-004</A1>
#       <A2>-3.39356000e-006</A2>
#       <A3>2.88931900e-007</A3>
#       <Slope>1.00000000</Slope>
#       <Offset>0.0000</Offset>
#     </TemperatureSensor>
#   </sensor>
#   <sensor Channel="2" >
#     <!-- Frequency 0, Conductivity -->
#     <ConductivitySensor SensorID="3" >
#       <SerialNumber>4268</SerialNumber>
#       <CalibrationDate>06-Dec-05</CalibrationDate>
#       <UseG_J>1</UseG_J>
#       <!-- Cell const and series R are applicable only for wide range sensors. -->
#       <SeriesR>0.0000</SeriesR>
#       <CellConst>2000.0000</CellConst>
#       <ConductivityType>0</ConductivityType>
#       <Coefficients equation="0" >
#         <A>0.00000000e+000</A>
#         <B>0.00000000e+000</B>
#         <C>0.00000000e+000</C>
#         <D>0.00000000e+000</D>
#         <M>0.0</M>
#         <CPcor>-9.57000000e-008</CPcor>
#       </Coefficients>
#       <Coefficients equation="1" >
#         <G>-9.97781500e-001</G>
#         <H>1.52848600e-001</H>
#         <I>-4.69407800e-004</I>
#         <J>6.03980100e-005</J>
#         <CPcor>-9.57000000e-008</CPcor>
#         <CTcor>3.2500e-006</CTcor>
#         <!-- WBOTC not applicable unless ConductivityType = 1. -->
#         <WBOTC>0.00000000e+000</WBOTC>
#       </Coefficients>
#       <Slope>1.00000000</Slope>
#       <Offset>0.00000</Offset>
#     </ConductivitySensor>
#   </sensor>
#   <sensor Channel="3" >
#     <!-- Count, Pressure, Strain Gauge -->
#     <PressureSensor SensorID="46" >
#       <SerialNumber>4268</SerialNumber>
#       <CalibrationDate>22-Nov-05</CalibrationDate>
#       <PA0>1.16634000e-001</PA0>
#       <PA1>1.56200800e-003</PA1>
#       <PA2>7.52185600e-012</PA2>
#       <PTEMPA0>-7.18702600e+001</PTEMPA0>
#       <PTEMPA1>4.81936000e+001</PTEMPA1>
#       <PTEMPA2>-2.28784500e-002</PTEMPA2>
#       <PTCA0>5.24479300e+005</PTCA0>
#       <PTCA1>6.70547700e+000</PTCA1>
#       <PTCA2>-1.52562300e-001</PTCA2>
#       <PTCB0>2.48532500e+001</PTCB0>
#       <PTCB1>-3.50000000e-004</PTCB1>
#       <PTCB2>0.00000000e+000</PTCB2>
#       <Offset>0.000000</Offset>
#     </PressureSensor>
#   </sensor>
#   <sensor Channel="4" >
#     <!-- A/D voltage 0, Oxygen, SBE 43 -->
#     <OxygenSensor SensorID="38" >
#       <SerialNumber>0268</SerialNumber>
#       <CalibrationDate>29-Feb-20</CalibrationDate>
#       <Use2007Equation>1</Use2007Equation>
#       <CalibrationCoefficients equation="0" >
#         <!-- Coefficients for Owens-Millard equation. -->
#         <Boc>0.0000</Boc>
#         <Soc>3.1260e-001</Soc>
#         <offset>-0.4337</offset>
#         <Pcor>1.35e-004</Pcor>
#         <Tcor>0.0023</Tcor>
#         <Tau>0.0</Tau>
#       </CalibrationCoefficients>
#       <CalibrationCoefficients equation="1" >
#         <!-- Coefficients for Sea-Bird equation - SBE calibration in 2007 and later. -->
#         <Soc>5.4910e-001</Soc>
#         <offset>-0.4386</offset>
#         <A>-3.6337e-003</A>
#         <B> 1.0518e-004</B>
#         <C>-1.0368e-006</C>
#         <D0> 2.5826e+000</D0>
#         <D1> 1.92634e-004</D1>
#         <D2>-4.64803e-002</D2>
#         <E> 3.6000e-002</E>
#         <Tau20> 1.2800</Tau20>
#         <H1>-3.3000e-002</H1>
#         <H2> 5.0000e+003</H2>
#         <H3> 1.4500e+003</H3>
#       </CalibrationCoefficients>
#     </OxygenSensor>
#   </sensor>
#   <sensor Channel="5" >
#     <!-- A/D voltage 1, Transmissometer, Chelsea/Seatech -->
#     <TransChelseaSeatechWetlabCStarSensor SensorID="59" >
#       <SerialNumber>CST-612PR</SerialNumber>
#       <CalibrationDate>6/27/02</CalibrationDate>
#       <M>19.4066</M>
#       <B>-1.1062</B>
#       <PathLength>0.250</PathLength>
#     </TransChelseaSeatechWetlabCStarSensor>
#   </sensor>
#   <sensor Channel="6" >
#     <!-- A/D voltage 2, Fluorometer, Chelsea Minitracka -->
#     <FluoroChelseaMinitrackaSensor SensorID="6" >
#       <SerialNumber>175011</SerialNumber>
#       <CalibrationDate>26-Mar-97</CalibrationDate>
#       <Vacetone>0.013</Vacetone>
#       <Vacetone100>3.612</Vacetone100>
#       <Offset>0.000</Offset>
#     </FluoroChelseaMinitrackaSensor>
#   </sensor>
#   <sensor Channel="7" >
#     <!-- A/D voltage 3, PAR/Irradiance, Biospherical/Licor -->
#     <PAR_BiosphericalLicorChelseaSensor SensorID="42" >
#       <SerialNumber>6404</SerialNumber>
#       <CalibrationDate>29-Nov-05</CalibrationDate>
#       <M>-0.76668700</M>
#       <B>-3.43363000</B>
#       <CalibrationConstant>3.42000000</CalibrationConstant>
#       <Multiplier>1.00000000</Multiplier>
#       <Offset>0.00000000</Offset>
#     </PAR_BiosphericalLicorChelseaSensor>
#   </sensor>
# </Sensors>
# datcnv_date = Jun 04 2024 15:04:44, 7.26.7.129 [datcnv_vars = 15]
# datcnv_in = C:\Users\ir64\OneDrive - The University of Waikato\Documents\Sampling\CTD casts\2024.02 CTD casts\2024.02 Hex files\Feb143.hex C:\Users\ir64\OneDrive - The University of Waikato\Documents\Sampling\CTD Documents\New 4268 & 6165 con files\20200723_SBE19_4268.xmlcon
# datcnv_skipover = 0
# datcnv_ox_hysteresis_correction = yes
# datcnv_ox_tau_correction = yes
# file_type = ascii
*END*
     -0.632    19.1234    19.1280     -2.127  -1.877298     -0.899     8.2812     89.495    9.25325    9.23765 6.8766e+01     3.0603     1.4968    68.7839   998.3793  0.000e+00
     -0.632    19.1236    19.1282     -2.127  -1.877298     -0.899     8.2816     89.500    9.25320    9.23761 7.0586e+01     0.8471     1.5486    67.8985   998.3793  0.000e+00
     -0.633    19.1235    19.1281     -2.127  -1.877298     -0.900     8.2848     89.534    9.25323    9.23764 8.2980e+01    -0.1259     1.5294    68.2257   998.3793  0.000e+00
     -0.633    19.1232    19.1278     -2.024  -1.786147     -0.900     8.2885     89.574    9.25329    9.23769 1.0022e+02    -0.3612     1.4852    68.9838   998.3794  0.000e+00
     -0.632    19.1232    19.1278     -2.127  -1.877298     -0.899     8.2871     89.558    9.25329    9.23769 1.2684e+02    -0.3612     1.4502    69.5894   998.3794  0.000e+00
     -0.632    19.1231    19.1277     -2.127  -1.877298     -0.899     8.2942     89.635    9.25330    9.23771 1.4326e+02    -0.3612     1.4383    69.7981   998.3794  0.000e+00
     -0.633    19.1232    19.1278     -2.127  -1.877298     -0.900     8.2960     89.654    9.25329    9.23769 1.2247e+02    -0.3612     1.4398    69.7715   998.3794  0.000e+00
     -0.634    19.1232    19.1278     -2.127  -1.877298     -0.902     8.3011     89.710    9.25328    9.23768 2.3880e+02    -0.3612     1.4478    69.6323   998.3794  0.000e+00
     -0.634    19.1234    19.1280     -2.127  -1.877298     -0.902     8.3028     89.728    9.25325    9.23765 3.6436e+02    -0.3612     1.4563    69.4843   998.3793  0.000e+00
     -0.632    19.1237    19.1283     -2.299  -2.029214     -0.899     8.3097     89.803    9.25319    9.23759 4.6784e+02    -0.3612     1.4583    69.4487   998.3793  0.000e+00
     -0.528    19.1994    19.2041    122.974 108.719335     -0.750     8.2949     89.813    9.23576    9.22010 6.2143e+02    -0.3612     1.4588    69.4413   998.4115  0.000e+00
     -0.335    20.0435    20.0483    173.393 156.220984     -0.477     8.1526     89.787    9.08000    9.06371 5.6106e+02     0.7115     7.8613    14.0110   998.2594  0.000e+00
     -0.201    21.0814    21.0865    151.918 140.027345     -0.286     8.0076     90.005    8.89682    8.87977 5.5340e+02     4.5336    11.1441     6.1666   998.0321  0.000e+00
     -0.099    21.7838    21.7890    128.524 120.270053     -0.141     7.9598     90.691    8.77681    8.75925 3.9002e+02     5.1187     6.3144    20.6265   997.8690  0.000e+00
     -0.046    22.1842    22.1895    122.705 115.807380     -0.066     8.0024     91.881    8.70952    8.69168 2.8429e+02     4.0355     2.9590    47.7235   997.7765  0.000e+00
     -0.017    22.3995    22.4049    119.891 113.668088     -0.024     8.1087     93.486    8.67370    8.65572 2.5224e+02     3.6454     2.8763    48.7199   997.7261  0.000e+00
      0.007    22.5105    22.5159    124.563 118.374611      0.011     8.2465     95.278    8.65520    8.63713 1.4431e+02     3.0857     2.1584    58.2981   997.7022  0.000e+00
      0.009    22.5556    22.5610    144.602 137.548357      0.012     8.3906     97.032    8.64730    8.62921 1.3298e+02     2.7890     1.8833    62.4483   997.6987  0.000e+00
      0.007    22.5686    22.5740    141.251 134.397345      0.011     8.5163     98.509    8.64522    8.62712 2.7537e+02     3.3338     1.8722    62.6215   997.6945  0.000e+00
      0.009    22.5659    22.5713    139.426 132.653797      0.012     8.6072     99.555    8.64571    8.62761 2.1798e+02     3.4355     1.8069    63.6535   997.6945  0.000e+00
      0.010    22.5499    22.5553    139.763 132.929091      0.014     8.6695    100.244    8.64835    8.63026 1.7227e+02     3.1218     1.7925    63.8830   997.6983  0.000e+00
      0.006    22.5261    22.5315    139.382 132.500878      0.009     8.6908    100.445    8.65229    8.63421 3.1015e+02     3.0879     1.8016    63.7379   997.7037  0.000e+00
      0.005    22.5062    22.5116    137.284 130.451659      0.007     8.6812    100.296    8.65563    8.63757 8.6851e+01     2.6893     1.8287    63.3071   997.7076  0.000e+00
     -0.001    22.4979    22.5033    137.726 130.849258     -0.002     8.6467     99.882    8.65698    8.63893 1.2349e+02     2.4646     1.7965    63.8194   997.7096  0.000e+00
     -0.013    22.4926    22.4980    138.708 131.766817     -0.019     8.6048     99.387    8.65784    8.63979 1.6343e+02     2.5028     1.8004    63.7557   997.7111  0.000e+00
     -0.024    22.4891    22.4945    140.876 133.816180     -0.035     8.5673     98.949    8.65837    8.64032 9.7127e+01     2.3120     3.5048    41.6366   997.7127  0.000e+00
     -0.032    22.4960    22.5014    137.313 130.451663     -0.046     8.5210     98.426    8.65730    8.63925 1.6242e+02     2.1169     2.0286    60.2214   997.7098  0.000e+00
     -0.024    22.5065    22.5119    134.129 127.454655     -0.035     8.4865     98.045    8.65564    8.63758 3.4250e+02     2.2844     1.8134    63.5499   997.7063  0.000e+00
     -0.006    22.5275    22.5329    131.368 124.886139     -0.008     8.5923     99.307    8.65223    8.63416 6.4552e+01     2.1509     1.9003    62.1833   997.7005  0.000e+00
      0.012    22.5502    22.5556    129.409 123.082256      0.017     8.6885    100.462    8.64853    8.63044 8.7551e+01     2.0237     1.8301    63.2849   997.6946  0.000e+00
      0.022    22.5671    22.5725    127.628 121.431386      0.031     8.6735    100.321    8.64578    8.62768 1.7797e+02     2.0110     1.8259    63.3515   997.6902  0.000e+00
      0.020    22.5770    22.5824    130.878 124.549792      0.028     8.5551     98.971    8.64408    8.62597 2.6208e+02     2.0682     1.8568    62.8644   997.6890  0.000e+00
      0.016    22.5837    22.5891    129.992 123.724281      0.023     8.3583     96.706    8.64299    8.62488 2.8383e+02     1.8583     1.8052    63.6802   997.6871  0.000e+00
      0.006    22.5894    22.5948    128.242 122.073363      0.009     8.1143     93.893    8.64209    8.62398 2.0086e+02     1.9580     1.7976    63.8016   997.6851  0.000e+00
      0.001    22.5911    22.5965    126.761 120.667134      0.001     7.8401     90.722    8.64184    8.62373 2.7842e+02     1.9304     1.7994    63.7720   997.6842  0.000e+00
      0.001    22.5920    22.5974    126.597 120.514288      0.001     7.5591     87.473    8.64169    8.62357 1.1715e+02     2.0979     1.7788    64.1022   997.6839  0.000e+00
      0.002    22.5968    22.6023    124.241 118.282880      0.003     7.2779     84.226    8.64095    8.62283 1.3469e+02     2.5282     1.7978    63.7986   997.6820  0.000e+00
      0.007    22.6040    22.6094    123.709 117.793835      0.011     7.0654     81.777    8.63978    8.62166 9.8358e+01     2.2251     1.7996    63.7690   997.6801  0.000e+00
      0.014    22.6077    22.6131    126.138 120.116891      0.020     6.9422     80.357    8.63912    8.62099 1.1844e+02     2.2781     1.7724    64.2043   997.6801  0.000e+00
      0.016    22.6049    22.6104    125.600 119.597237      0.023     6.8757     79.584    8.63958    8.62146 7.3845e+01     2.4010     1.7849    64.0044   997.6806  0.000e+00
      0.016    22.6006    22.6061    131.359 125.069564      0.023     6.8345     79.101    8.64016    8.62204 1.5762e+02     2.5664     1.7786    64.1051   997.6836  0.000e+00
      0.014    22.5986    22.6040    135.251 128.769574      0.020     6.8127     78.847    8.64041    8.62229 1.7478e+02     2.5621     1.7784    64.1081   997.6854  0.000e+00
      0.012    22.5988    22.6043    125.295 119.291567      0.017     6.7979     78.675    8.64060    8.62248 1.4231e+02     2.5430     1.7699    64.2443   997.6819  0.000e+00
      0.009    22.5984    22.6038    120.930 115.134877      0.012     6.7720     78.373    8.64077    8.62265 1.6168e+02     2.4773     1.7805    64.0740   997.6805  0.000e+00
      0.010    22.5965    22.6019    119.747 114.004162      0.014     6.7412     78.014    8.64111    8.62299 1.7004e+02     2.5112     1.7894    63.9319   997.6805  0.000e+00
      0.006    22.5951    22.6005    118.948 113.240201      0.009     6.6785     77.285    8.64135    8.62323 1.1144e+02     2.5600     1.7751    64.1614   997.6805  0.000e+00
      0.010    22.5936    22.5990    118.888 113.179086      0.014     6.6107     76.499    8.64161    8.62349 1.4521e+02     2.5664     1.8035    63.7068   997.6809  0.000e+00
      0.013    22.5914    22.5968    120.691 114.890395      0.018     6.5330     75.597    8.64192    8.62381 9.7015e+01     2.5515     1.8113    63.5825   997.6820  0.000e+00
      0.010    22.5902    22.5956    122.524 116.632413      0.014     6.4499     74.634    8.64208    8.62397 1.7168e+02     2.5960     1.7967    63.8149   997.6829  0.000e+00
      0.012    22.5900    22.5955    122.846 116.938045      0.017     6.3750     73.767    8.64210    8.62399 1.7558e+02     2.5812     1.7993    63.7735   997.6831  0.000e+00
      0.011    22.5902    22.5956    122.011 116.143410      0.015     6.3112     73.028    8.64209    8.62398 1.8942e+02     2.6490     1.8215    63.4211   997.6828  0.000e+00
      0.011    22.5905    22.5959    120.533 114.737594      0.015     6.2693     72.543    8.64208    8.62397 1.6501e+02     2.7254     1.8015    63.7394   997.6822  0.000e+00
      0.007    22.5895    22.5950    119.925 114.156960      0.011     6.2550     72.376    8.64225    8.62414 1.9103e+02     2.7084     1.7996    63.7690   997.6822  0.000e+00
      0.012    22.5875    22.5929    120.188 114.401437      0.017     6.2621     72.456    8.64259    8.62448 7.8109e+01     2.6660     1.7934    63.8682   997.6828  0.000e+00
      0.012    22.5857    22.5912    120.449 114.645916      0.017     6.2857     72.727    8.64287    8.62475 8.1791e+01     2.6172     1.8016    63.7379   997.6833  0.000e+00
      0.012    22.5853    22.5907    123.564 117.610455      0.017     6.3227     73.155    8.64287    8.62476 9.1195e+01     2.6384     1.7923    63.8860   997.6845  0.000e+00
      0.015    22.5858    22.5913    123.049 117.121429      0.021     6.3733     73.741    8.64279    8.62468 8.8763e+01     2.6469     1.8088    63.6224   997.6842  0.000e+00
      0.011    22.5863    22.5917    126.613 120.514291      0.015     6.4383     74.494    8.64264    8.62453 1.8795e+02     2.7126     1.7867    63.9748   997.6853  0.000e+00
      0.012    22.5871    22.5925    131.653 125.314177      0.017     6.5101     75.328    8.64238    8.62427 2.0091e+02     2.7360     1.7797    64.0874   997.6868  0.000e+00
      0.012    22.5891    22.5945    130.170 123.907722      0.017     6.5854     76.201    8.64209    8.62398 1.7949e+02     2.7784     1.7939    63.8593   997.6859  0.000e+00
