* Sea-Bird SBE19plus  Data File:
* FileName = C:\Users\dcastle\Documents\CTD\SBE19plus_01908200_2024_03_12_0139.hex
* Software version 2.8.0.119
* Temperature SN = 8200
* Conductivity SN = 8200
* System UpLoad Time = Mar 12 2024 09:34:09
* <ApplicationData>
* <Seaterm232>
* <SoftwareVersion>2.8.0.119</SoftwareVersion>
* <BuildDate>07-Nov-2018</BuildDate>
* </Seaterm232>
* </ApplicationData>
* <InstrumentState>
* <HardwareData DeviceType='SBE19plus' SerialNumber='01908200'>
*
*    <Manufacturer>Sea-Bird Electronics, Inc.</Manufacturer>
*
*    <FirmwareVersion>3.1.8</FirmwareVersion>
*
*    <FirmwareDate>Mar  9 2016 16:22:29</FirmwareDate>
*
*    <CommandSetVersion>1.4</CommandSetVersion>
*
*    <PCBAssembly PCBSerialNum='262471' AssemblyNum='41054K'/>
*
*    <PCBAssembly PCBSerialNum='262475' AssemblyNum='41059E'/>
*
*    <PCBAssembly PCBSerialNum='262477' AssemblyNum='41606B'/>
*
*    <PCBAssembly PCBSerialNum='262473' AssemblyNum='41967C'/>
*
*    <MfgDate>15 Jun 2022</MfgDate>
*
*    <InternalSensors>
*
*       <Sensor id='Main Temperature'>
*
*          <type>temperature0</type>
*
*          <SerialNumber>01908200</SerialNumber>
*
*       </Sensor>
*
*       <Sensor id='Main Conductivity'>
*
*          <type>conductivity-0</type>
*
*          <SerialNumber>01908200</SerialNumber>
*
*       </Sensor>
*
*       <Sensor id='Main Pressure'>
*
*          <type>strain-0</type>
*
*          <SerialNumber>12287607</SerialNumber>
*
*       </Sensor>
*
*    </InternalSensors>
*
*    <ExternalSensors>
*
*       <Sensor id='volt 0'>
*
*          <type>PAR</type>
*
*          <SerialNumber>2214</SerialNumber>
*
*       </Sensor>
*
*       <Sensor id='volt 1'>
*
*          <type>not assigned</type>
*
*          <SerialNumber>not assigned</SerialNumber>
*
*       </Sensor>
*
*       <Sensor id='volt 2'>
*
*          <type>not assigned</type>
*
*          <SerialNumber>not assigned</SerialNumber>
*
*       </Sensor>
*
*       <Sensor id='volt 3'>
*
*          <type>not assigned</type>
*
*          <SerialNumber>not assigned</SerialNumber>
*
*       </Sensor>
*
*       <Sensor id='volt 4'>
*
*          <type>not assigned</type>
*
*          <SerialNumber>not assigned</SerialNumber>
*
*       </Sensor>
*
*       <Sensor id='volt 5'>
*
*          <type>not assigned</type>
*
*          <SerialNumber>not assigned</SerialNumber>
*
*       </Sensor>
*
*       <Sensor id='serial'>
*
*          <type>not assigned</type>
*
*          <SerialNumber>not assigned</SerialNumber>
*
*       </Sensor>
*
*    </ExternalSensors>
*
* </HardwareData>
* <StatusData DeviceType='SBE19plus' SerialNumber='01908200'>
*
*    <DateTime>2024-03-13T09:03:11</DateTime>
*
*    <LoggingState>not logging</LoggingState>
*
*    <EventSummary numEvents='0'/>
*
*    <Power>
*
*       <vMain>12.6</vMain>
*
*       <vLith>8.4</vLith>
*
*       <iMain>61.4</iMain>
*
*       <iPump>209.3</iPump>
*
*       <iExt01>16.3</iExt01>
*
*       <iExt2345>52.9</iExt2345>
*
*    </Power>
*
*    <MemorySummary>
*
*       <Bytes>1417069</Bytes>
*
*       <Samples>83357</Samples>
*
*       <SamplesFree>3787122</SamplesFree>
*
*       <SampleLength>17</SampleLength>
*
*       <Profiles>146</Profiles>
*
*    </MemorySummary>
*
* </StatusData>
* <ConfigurationData DeviceType='SBE19plus' SerialNumber='01908200'>
*
*    <ProfileMode>
*
*       <ScansToAverage>1</ScansToAverage>
*
*       <MinimumCondFreq>2645</MinimumCondFreq>
*
*       <PumpDelay>60</PumpDelay>
*
*       <AutoRun>no</AutoRun>
*
*       <IgnoreSwitch>no</IgnoreSwitch>
*
*    </ProfileMode>
*
*    <Battery>
*
*       <Type>alkaline</Type>
*
*       <CutOff>7.5</CutOff>
*
*    </Battery>
*
*    <DataChannels>
*
*       <ExtVolt0>yes</ExtVolt0>
*
*       <ExtVolt1>no</ExtVolt1>
*
*       <ExtVolt2>yes</ExtVolt2>
*
*       <ExtVolt3>yes</ExtVolt3>
*
*       <ExtVolt4>no</ExtVolt4>
*
*       <ExtVolt5>no</ExtVolt5>
*
*       <SBE38>no</SBE38>
*
*       <WETLABS>no</WETLABS>
*
*       <OPTODE>no</OPTODE>
*
*       <SBE63>no</SBE63>
*
*       <SeaFET>no</SeaFET>
*
*       <GTD>no</GTD>
*
*    </DataChannels>
*
*    <EchoCharacters>yes</EchoCharacters>
*
*    <OutputExecutedTag>yes</OutputExecutedTag>
*
*    <OutputFormat>raw HEX</OutputFormat>
*
* </ConfigurationData>
* <CalibrationCoefficients DeviceType='SBE19plus' SerialNumber='01908200'>
*
*    <Calibration format='TEMP1' id='Main Temperature'>
*
*       <SerialNum>01908200</SerialNum>
*
*       <CalDate>01-Jul-22</CalDate>
*
*       <TA0>1.273074e-03</TA0>
*
*       <TA1>2.634339e-04</TA1>
*
*       <TA2>6.102413e-07</TA2>
*
*       <TA3>1.045053e-07</TA3>
*
*       <TOFFSET>0.000000e+00</TOFFSET>
*
*    </Calibration>
*
*    <Calibration format='WBCOND0' id='Main Conductivity'>
*
*       <SerialNum>01908200</SerialNum>
*
*       <CalDate>01-Jul-22</CalDate>
*
*       <G>-1.000954e+00</G>
*
*       <H>1.438363e-01</H>
*
*       <I>-2.457737e-04</I>
*
*       <J>4.045354e-05</J>
*
*       <CPCOR>-9.570000e-08</CPCOR>
*
*       <CTCOR>3.250000e-06</CTCOR>
*
*       <CSLOPE>1.000000e+00</CSLOPE>
*
*    </Calibration>
*
*    <Calibration format='STRAIN0' id='Main Pressure'>
*
*       <SerialNum>12287607</SerialNum>
*
*       <CalDate>20-Jun-22</CalDate>
*
*       <PA0>5.417929e-02</PA0>
*
*       <PA1>1.544327e-03</PA1>
*
*       <PA2>5.749058e-12</PA2>
*
*       <PTCA0>5.243616e+05</PTCA0>
*
*       <PTCA1>5.371927e+00</PTCA1>
*
*       <PTCA2>-1.739922e-01</PTCA2>
*
*       <PTCB0>2.506713e+01</PTCB0>
*
*       <PTCB1>-5.750000e-04</PTCB1>
*
*       <PTCB2>0.000000e+00</PTCB2>
*
*       <PTEMPA0>-6.303813e+01</PTEMPA0>
*
*       <PTEMPA1>5.003359e+01</PTEMPA1>
*
*       <PTEMPA2>-6.230146e-02</PTEMPA2>
*
*       <POFFSET>0.000000e+00</POFFSET>
*
*       <PRANGE>5.080000e+02</PRANGE>
*
*    </Calibration>
*
*    <Calibration format='VOLT0' id='Volt 0'>
*
*       <OFFSET>-4.688400e-02</OFFSET>
*
*       <SLOPE>1.251355e+00</SLOPE>
*
*    </Calibration>
*
*    <Calibration format='VOLT0' id='Volt 1'>
*
*       <OFFSET>-4.659100e-02</OFFSET>
*
*       <SLOPE>1.252580e+00</SLOPE>
*
*    </Calibration>
*
*    <Calibration format='VOLT0' id='Volt 2'>
*
*       <OFFSET>-4.627400e-02</OFFSET>
*
*       <SLOPE>1.252280e+00</SLOPE>
*
*    </Calibration>
*
*    <Calibration format='VOLT0' id='Volt 3'>
*
*       <OFFSET>-4.753100e-02</OFFSET>
*
*       <SLOPE>1.251494e+00</SLOPE>
*
*    </Calibration>
*
*    <Calibration format='VOLT0' id='Volt 4'>
*
*       <OFFSET>-4.641400e-02</OFFSET>
*
*       <SLOPE>1.250582e+00</SLOPE>
*
*    </Calibration>
*
*    <Calibration format='VOLT0' id='Volt 5'>
*
*       <OFFSET>-4.738800e-02</OFFSET>
*
*       <SLOPE>1.251858e+00</SLOPE>
*
*    </Calibration>
*
*    <Calibration format='FREQ0' id='external frequency channel'>
*
*       <EXTFREQSF>1.000018e+00</EXTFREQSF>
*
*    </Calibration>
*
* </CalibrationCoefficients>
* <EventCounters DeviceType='SBE19plus' SerialNumber='01908200'>
*
*    <EventSummary numEvents='0'/>
*
* </EventCounters></InstrumentState>
* <Headers>
*
* cast 139 09 Mar 2024 08:49:04 samples 76021 to 77551, avg = 1, stop = mag switch
*
# nquan = 11
# nvalues = 1291                                  
# units = specified
# name 0 = depFM: Depth [fresh water, m]
# name 1 = tv290C: Temperature [ITS-90, deg C]
# name 2 = tv268C: Temperature [IPTS-68, deg C]
# name 3 = specc: Specific Conductance [uS/cm]
# name 4 = c0uS/cm: Conductivity [uS/cm]
# name 5 = prdE: Pressure, Strain Gauge [psi]
# name 6 = oxsolMg/L: Oxygen Saturation, Garcia & Gordon [mg/l]
# name 7 = oxsatMg/L: Oxygen Saturation, Weiss [mg/l]
# name 8 = par/sat/log: PAR/Logarithmic, Satlantic
# name 9 = density00: Density [density, kg/m^3]
# name 10 = flag:  0.000e+00
# span 0 =     -0.553,     16.059                 
# span 1 =     9.8762,    19.5110                 
# span 2 =     9.8786,    19.5157                 
# span 3 =      3.529,    234.561                 
# span 4 =   3.101990, 163.644603                 
# span 5 =     -0.786,     22.841                 
# span 6 =    9.17878,   11.31743                 
# span 7 =    9.16289,   11.30636                 
# span 8 = 1.1258e-01, 2.6999e+03                 
# span 9 =   998.3312,   999.8741                 
# span 10 = 0.0000e+00, 0.0000e+00                
# interval = seconds: 0.25
# start_time = Mar 09 2024 08:49:04 [Instrument's time stamp, header]
# bad_flag = -9.990e-29
# <Sensors count="6" >
#   <sensor Channel="1" >
#     <!-- Count, Temperature -->
#     <TemperatureSensor SensorID="58" >
#       <SerialNumber>8200</SerialNumber>
#       <CalibrationDate>01-Jul-22</CalibrationDate>
#       <A0>1.27307364e-003</A0>
#       <A1>2.63433881e-004</A1>
#       <A2>6.10241346e-007</A2>
#       <A3>1.04505265e-007</A3>
#       <Slope>1.00000000</Slope>
#       <Offset>0.0000</Offset>
#     </TemperatureSensor>
#   </sensor>
#   <sensor Channel="2" >
#     <!-- Frequency 0, Conductivity -->
#     <ConductivitySensor SensorID="3" >
#       <SerialNumber>8200</SerialNumber>
#       <CalibrationDate>01-Jul-22</CalibrationDate>
#       <UseG_J>1</UseG_J>
#       <!-- Cell const and series R are applicable only for wide range sensors. -->
#       <SeriesR>0.0000</SeriesR>
#       <CellConst>2000.0000</CellConst>
#       <ConductivityType>0</ConductivityType>
#       <Coefficients equation="0" >
#         <A>0.00000000e+000</A>
#         <B>0.00000000e+000</B>
#         <C>0.00000000e+000</C>
#         <D>0.00000000e+000</D>
#         <M>0.0</M>
#         <CPcor>-9.57000000e-008</CPcor>
#       </Coefficients>
#       <Coefficients equation="1" >
#         <G>-1.00095430e+000</G>
#         <H>1.43836252e-001</H>
#         <I>-2.45773667e-004</I>
#         <J>4.04535414e-005</J>
#         <CPcor>-9.57000000e-008</CPcor>
#         <CTcor>3.2500e-006</CTcor>
#         <!-- WBOTC not applicable unless ConductivityType = 1. -->
#         <WBOTC>0.00000000e+000</WBOTC>
#       </Coefficients>
#       <Slope>1.00000000</Slope>
#       <Offset>0.00000</Offset>
#     </ConductivitySensor>
#   </sensor>
#   <sensor Channel="3" >
#     <!-- Count, Pressure, Strain Gauge -->
#     <PressureSensor SensorID="46" >
#       <SerialNumber>8200</SerialNumber>
#       <CalibrationDate>20-Jun-22</CalibrationDate>
#       <PA0>5.41792865e-002</PA0>
#       <PA1>1.54432654e-003</PA1>
#       <PA2>5.74905779e-012</PA2>
#       <PTEMPA0>-6.30381273e+001</PTEMPA0>
#       <PTEMPA1>5.00335947e+001</PTEMPA1>
#       <PTEMPA2>-6.23014614e-002</PTEMPA2>
#       <PTCA0>5.24361650e+005</PTCA0>
#       <PTCA1>5.37192737e+000</PTCA1>
#       <PTCA2>-1.73992204e-001</PTCA2>
#       <PTCB0>2.50671250e+001</PTCB0>
#       <PTCB1>-5.75000000e-004</PTCB1>
#       <PTCB2>0.00000000e+000</PTCB2>
#       <Offset>0.000000</Offset>
#     </PressureSensor>
#   </sensor>
#   <sensor Channel="4" >
#     <!-- A/D voltage 0, PAR/Logarithmic, Satlantic -->
#     <PARLog_SatlanticSensor SensorID="76" >
#       <SerialNumber>2214</SerialNumber>
#       <CalibrationDate>5/20/22</CalibrationDate>
#       <a0>9.9290e-001</a0>
#       <a1>8.0312e-001</a1>
#       <Im>1.3589e+000</Im>
#       <Multiplier>1.0000e+000</Multiplier>
#     </PARLog_SatlanticSensor>
#   </sensor>
#   <sensor Channel="5" >
#     <!-- A/D voltage 1, Free -->
#   </sensor>
#   <sensor Channel="6" >
#     <!-- A/D voltage 2, Free -->
#   </sensor>
# </Sensors>
# datcnv_date = Jun 05 2024 16:06:10, 7.26.7.129 [datcnv_vars = 10]
# datcnv_in = C:\Users\ir64\OneDrive - The University of Waikato\Documents\Sampling\CTD casts\2024.03 CTD casts\2024.03 HEX files\2024.03.08 first sampling\2024.03.09 Okaro 1.1 139.hex C:\Users\ir64\OneDrive - The University of Waikato\Documents\Sampling\CTD casts\2024.03 CTD casts\2024.03 HEX files\2024.03.08 first sampling\CTD#3 for cast 139-146.xmlcon
# datcnv_skipover = 0
# file_type = ascii
*END*
     -0.549    17.2843    17.2885     13.434  11.362106     -0.780    9.60727    9.59301 1.3557e+02   998.7336  0.000e+00
     -0.546    17.2847    17.2888     13.364  11.302882     -0.777    9.60720    9.59295 1.2931e+02   998.7335  0.000e+00
     -0.548    17.2852    17.2893     13.434  11.362106     -0.779    9.60710    9.59284 1.2173e+02   998.7334  0.000e+00
     -0.546    17.2856    17.2898     13.434  11.362106     -0.777    9.60701    9.59276 1.0955e+02   998.7334  0.000e+00
     -0.548    17.2861    17.2903     13.503  11.421331     -0.779    9.60691    9.59265 1.0742e+02   998.7333  0.000e+00
     -0.550    17.2865    17.2907     13.433  11.362106     -0.782    9.60683    9.59257 1.0226e+02   998.7332  0.000e+00
     -0.548    17.2871    17.2913     13.363  11.302882     -0.779    9.60671    9.59245 1.0246e+02   998.7331  0.000e+00
     -0.550    17.2871    17.2913     13.363  11.302882     -0.782    9.60671    9.59245 1.0237e+02   998.7331  0.000e+00
     -0.549    17.2878    17.2920     13.223  11.184434     -0.780    9.60658    9.59232 1.0356e+02   998.7329  0.000e+00
     -0.548    17.2882    17.2924     13.293  11.243658     -0.779    9.60649    9.59223 1.0692e+02   998.7329  0.000e+00
     -0.549    17.2885    17.2926     13.223  11.184434     -0.780    9.60644    9.59218 1.0702e+02   998.7328  0.000e+00
     -0.548    17.2890    17.2932     13.223  11.184434     -0.779    9.60634    9.59208 1.3022e+02   998.7327  0.000e+00
     -0.549    17.2894    17.2936     13.152  11.125210     -0.780    9.60626    9.59200 1.2880e+02   998.7326  0.000e+00
     -0.549    17.2898    17.2939     13.117  11.095598     -0.780    9.60619    9.59193 1.3056e+02   998.7325  0.000e+00
     -0.551    17.2901    17.2943     13.222  11.184433     -0.783    9.60612    9.59186 1.3960e+02   998.7325  0.000e+00
     -0.550    17.2903    17.2944     13.292  11.243657     -0.782    9.60609    9.59183 1.3682e+02   998.7325  0.000e+00
     -0.549    17.2906    17.2948     13.117  11.095598     -0.780    9.60602    9.59176 1.3793e+02   998.7324  0.000e+00
     -0.549    17.2906    17.2948     13.117  11.095598     -0.780    9.60602    9.59176 1.3766e+02   998.7324  0.000e+00
     -0.551    17.2899    17.2941     13.292  11.243657     -0.783    9.60615    9.59189 1.2643e+02   998.7325  0.000e+00
     -0.549    17.2910    17.2952     13.572  11.480555     -0.780    9.60593    9.59167 1.1513e+02   998.7324  0.000e+00
     -0.551    17.2919    17.2960     14.027  11.865520     -0.783    9.60575    9.59149 1.1845e+02   998.7324  0.000e+00
     -0.550    17.2915    17.2956     15.322  12.961229     -0.782    9.60580    9.59154 1.1946e+02   998.7329  0.000e+00
     -0.551    17.2910    17.2951     16.443  13.908917     -0.783    9.60588    9.59162 1.1541e+02   998.7333  0.000e+00
     -0.551    17.2907    17.2949     17.003  14.382778     -0.783    9.60592    9.59166 1.1594e+02   998.7335  0.000e+00
     -0.551    17.2902    17.2943     17.984  15.212062     -0.783    9.60600    9.59174 1.1574e+02   998.7339  0.000e+00
     -0.549    17.2902    17.2943     18.649  15.774810     -0.780    9.60598    9.59172 1.1345e+02   998.7341  0.000e+00
     -0.552    17.2902    17.2943     18.334  15.508244     -0.785    9.60599    9.59173 1.1703e+02   998.7340  0.000e+00
     -0.551    17.2900    17.2942     18.334  15.508244     -0.783    9.60602    9.59176 1.1685e+02   998.7340  0.000e+00
     -0.551    17.2888    17.2930     18.054  15.271298     -0.783    9.60627    9.59201 1.0962e+02   998.7341  0.000e+00
     -0.551    17.2872    17.2914     18.265  15.449007     -0.783    9.60658    9.59233 1.0848e+02   998.7345  0.000e+00
     -0.549    17.2859    17.2900     18.511  15.656336     -0.780    9.60685    9.59259 1.0958e+02   998.7348  0.000e+00
     -0.550    17.2848    17.2889     19.562  16.544913     -0.782    9.60705    9.59279 1.0381e+02   998.7353  0.000e+00
     -0.551    17.2845    17.2887     19.107  16.159858     -0.783    9.60711    9.59285 1.2173e+02   998.7352  0.000e+00
     -0.553    17.2844    17.2886     21.663  18.322184     -0.786    9.60707    9.59281 1.2804e+02   998.7360  0.000e+00
     -0.550    17.2850    17.2892     25.901  21.906827     -0.782    9.60685    9.59259 1.3808e+02   998.7372  0.000e+00
     -0.552    17.2860    17.2901     25.235  21.343907     -0.785    9.60668    9.59242 1.4362e+02   998.7369  0.000e+00
     -0.550    17.2871    17.2913     23.938  20.247739     -0.782    9.60647    9.59221 1.5807e+02   998.7363  0.000e+00
     -0.549    17.2886    17.2927     22.046  18.648034     -0.780    9.60623    9.59197 1.8250e+02   998.7354  0.000e+00
     -0.482    17.3188    17.3230     69.148  58.530571     -0.686    9.59904    9.58476 1.8426e+02   998.7458  0.000e+00
     -0.366    17.7888    17.7931    135.034 115.570663     -0.521    9.50452    9.48990 1.7676e+02   998.6848  0.000e+00
     -0.251    18.3155    18.3199    118.933 103.042905     -0.357    9.40284    9.38784 1.9364e+02   998.5820  0.000e+00
     -0.143    18.7214    18.7259    107.932  94.388128     -0.204    9.32576    9.31046 1.9390e+02   998.5013  0.000e+00
     -0.058    19.0415    19.0460    104.177  91.771552     -0.082    9.26568    9.25014 2.2089e+02   998.4382  0.000e+00
      0.017    19.2198    19.2245    102.278  90.463389      0.025    9.23248    9.21681 1.8138e+02   998.4027  0.000e+00
      0.077    19.3174    19.3221    101.382  89.868793      0.110    9.21441    9.19866 1.8262e+02   998.3833  0.000e+00
      0.116    19.3575    19.3621    100.787  89.422867      0.165    9.20702    9.19124 1.5820e+02   998.3753  0.000e+00
      0.161    19.3671    19.3717    101.067  89.690412      0.229    9.20524    9.18946 1.1994e+02   998.3737  0.000e+00
      0.196    19.3726    19.3773    102.562  91.028201      0.278    9.20418    9.18839 1.5273e+02   998.3732  0.000e+00
      0.216    19.3828    19.3875    102.237  90.760633      0.307    9.20230    9.18651 9.4597e+01   998.3712  0.000e+00
      0.232    19.3723    19.3770    102.261  90.760636      0.331    9.20424    9.18845 5.8816e+02   998.3733  0.000e+00
      0.242    19.3274    19.3320    102.298  90.701191      0.345    9.21255    9.19680 1.2394e+02   998.3824  0.000e+00
      0.250    19.2769    19.2815    102.347  90.641748      0.355    9.22189    9.20618 1.4956e+02   998.3924  0.000e+00
      0.250    19.2411    19.2457    102.363  90.582300      0.355    9.22854    9.21285 1.6072e+02   998.3996  0.000e+00
      0.236    19.2152    19.2198    102.423  90.582308      0.335    9.23334    9.21767 2.3941e+02   998.4046  0.000e+00
      0.230    19.1989    19.2035    102.326  90.463397      0.328    9.23637    9.22071 1.0627e+02   998.4078  0.000e+00
      0.234    19.1965    19.2011    101.962  90.136383      0.332    9.23683    9.22118 2.4578e+02   998.4082  0.000e+00
      0.238    19.2150    19.2197    101.852  90.076921      0.338    9.23338    9.21772 1.7057e+02   998.4045  0.000e+00
      0.237    19.2298    19.2344    102.154  90.374201      0.337    9.23063    9.21495 2.7473e+02   998.4017  0.000e+00
      0.223    19.2467    19.2513    102.215  90.463383      0.317    9.22750    9.21181 5.9710e+02   998.3983  0.000e+00
      0.192    19.2359    19.2405    102.140  90.374199      0.274    9.22951    9.21382 2.2240e+02   998.4003  0.000e+00
      0.175    19.1914    19.1960    101.973  90.136384      0.249    9.23778    9.22213 1.6746e+02   998.4089  0.000e+00
      0.173    19.1710    19.1756    101.852  89.987749      0.246    9.24157    9.22593 2.5914e+02   998.4129  0.000e+00
      0.178    19.1781    19.1827    101.836  89.987747      0.253    9.24025    9.22461 2.3250e+02   998.4115  0.000e+00
      0.185    19.1797    19.1843    102.000  90.136387      0.263    9.23995    9.22431 2.0686e+02   998.4113  0.000e+00
      0.187    19.1983    19.2029    102.227  90.374210      0.266    9.23649    9.22083 2.6999e+03   998.4077  0.000e+00
      0.186    19.2112    19.2158    102.264  90.433664      0.264    9.23408    9.21842 1.3403e+02   998.4052  0.000e+00
      0.187    19.1557    19.1603    102.123  90.195851      0.266    9.24441    9.22878 6.0937e+02   998.4161  0.000e+00
