* Sea-Bird SBE19plus Data File:
* FileName = C:\Users\instrument\Desktop\Iola Rosa. CTD Casts\February 2024\Feb144.hex
* Software Version 1.59
* Temperature SN =  4268
* Conductivity SN =  4268
* System UpLoad Time = Feb 26 2024 14:00:28
* ds
* SeacatPlus V 1.6  SERIAL NO. 4268    26 Feb 2024  13:53:56
* vbatt = 12.7, vlith =  7.9, ioper =  61.6 ma, ipump =  85.0 ma,
* iext01 =  39.7 ma
* iext23 =  52.7 ma
*
* status = not logging
* number of scans to average = 1
* samples = 213406, free = 227668, casts = 152
* mode = profile, minimum cond freq = 2567, pump delay = 60 sec
* autorun = no, ignore magnetic switch = no
* battery type = alkaline, battery cutoff =  7.3 volts
* pressure sensor = strain gauge, range = 508.0
* SBE 38 = no, Gas Tension Device = no
* Ext Volt 0 = yes, Ext Volt 1 = yes, Ext Volt 2 = yes, Ext Volt 3 = yes
* echo commands = yes
* output format = raw HEX

* S>
*
* SeacatPlus V 1.6  SERIAL NO. 4268    26 Feb 2024  13:55:03
* temperature:  06-dec-05
*     TA0 = 1.161749e-03
*     TA1 = 2.891779e-04
*     TA2 = -3.393560e-06
*     TA3 = 2.889319e-07
*     TOFFSET = 0.000000e+00
* conductivity:  06-dec-05
*     G = -9.977815e-01
*     H = 1.528486e-01
*     I = -4.694078e-04
*     J = 6.039801e-05
*     CF0 = 2.561972e+03
*     CPCOR = -9.570000e-08
*     CTCOR = 3.250000e-06
*     CSLOPE = 1.000000e+00
* pressure S/N = 1980, range = 508 psia:  22-nov-05
*     PA0 = 1.166340e-01
*     PA1 = 1.562008e-03
*     PA2 = 7.521856e-12
*     PTCA0 = 5.244793e+05
*     PTCA1 = 6.705477e+00
*     PTCA2 = -1.525623e-01
*     PTCB0 = 2.485325e+01
*     PTCB1 = -3.500000e-04
*     PTCB2 = 0.000000e+00
*     PTEMPA0 = -7.187026e+01
*     PTEMPA1 = 4.819360e+01
*     PTEMPA2 = -2.287845e-02
*     POFFSET = 0.000000e+00
* volt 0: offset = -4.716333e-02, slope = 1.249825e+00
* volt 1: offset = -4.705000e-02, slope = 1.250722e+00
* volt 2: offset = -4.720000e-02, slope = 1.250906e+00
* volt 3: offset = 0.000000e+00, slope = 1.000000e+00
*     EXTFREQSF = 1.000004e+00
* dh
* cast 144 22 Feb 2024 12:57:07 samples 201616 to 202613, avg = 1, stop = mag switch

* S>
# nquan = 16
# nvalues = 841                                   
# units = specified
# name 0 = depFM: Depth [fresh water, m]
# name 1 = tv290C: Temperature [ITS-90, deg C]
# name 2 = tv268C: Temperature [IPTS-68, deg C]
# name 3 = specc: Specific Conductance [uS/cm]
# name 4 = c0uS/cm: Conductivity [uS/cm]
# name 5 = prdE: Pressure, Strain Gauge [psi]
# name 6 = sbeox0Mg/L: Oxygen, SBE 43 [mg/l]
# name 7 = sbeox0PS: Oxygen, SBE 43 [% saturation]
# name 8 = oxsolMg/L: Oxygen Saturation, Garcia & Gordon [mg/l]
# name 9 = oxsatMg/L: Oxygen Saturation, Weiss [mg/l]
# name 10 = par: PAR/Irradiance, Biospherical/Licor
# name 11 = flCM: Fluorescence, Chelsea Mini Chl Con [ug/l]
# name 12 = bat: Beam Attenuation, Chelsea/Seatech [1/m]
# name 13 = xmiss: Beam Transmission, Chelsea/Seatech [%]
# name 14 = density00: Density [density, kg/m^3]
# name 15 = flag:  0.000e+00
# span 0 =     -0.638,     14.916                 
# span 1 =     9.8431,    23.2107                 
# span 2 =     9.8455,    23.2163                 
# span 3 =     -1.528,    207.721                 
# span 4 =  -1.451909, 197.449371                 
# span 5 =     -0.908,     21.215                 
# span 6 =    -0.2457,     9.6045                 
# span 7 =     -2.393,    112.445                 
# span 8 =    8.54138,   11.32645                 
# span 9 =    8.52286,   11.31537                 
# span 10 = 1.3056e-01, 3.1487e+02                
# span 11 =    -0.3612,    41.9901                
# span 12 =     1.2553,    15.2000                
# span 13 =     2.2371,    73.0644                
# span 14 =   997.5281,   999.8237                
# span 15 = 0.0000e+00, 0.0000e+00                
# interval = seconds: 0.25
# start_time = Feb 22 2024 12:57:07 [Instrument's time stamp, header]
# bad_flag = -9.990e-29
# <Sensors count="7" >
#   <sensor Channel="1" >
#     <!-- Count, Temperature -->
#     <TemperatureSensor SensorID="58" >
#       <SerialNumber>4268</SerialNumber>
#       <CalibrationDate>06-Dec-05</CalibrationDate>
#       <A0>1.16174900e-003</A0>
#       <A1>2.89177900e-004</A1>
#       <A2>-3.39356000e-006</A2>
#       <A3>2.88931900e-007</A3>
#       <Slope>1.00000000</Slope>
#       <Offset>0.0000</Offset>
#     </TemperatureSensor>
#   </sensor>
#   <sensor Channel="2" >
#     <!-- Frequency 0, Conductivity -->
#     <ConductivitySensor SensorID="3" >
#       <SerialNumber>4268</SerialNumber>
#       <CalibrationDate>06-Dec-05</CalibrationDate>
#       <UseG_J>1</UseG_J>
#       <!-- Cell const and series R are applicable only for wide range sensors. -->
#       <SeriesR>0.0000</SeriesR>
#       <CellConst>2000.0000</CellConst>
#       <ConductivityType>0</ConductivityType>
#       <Coefficients equation="0" >
#         <A>0.00000000e+000</A>
#         <B>0.00000000e+000</B>
#         <C>0.00000000e+000</C>
#         <D>0.00000000e+000</D>
#         <M>0.0</M>
#         <CPcor>-9.57000000e-008</CPcor>
#       </Coefficients>
#       <Coefficients equation="1" >
#         <G>-9.97781500e-001</G>
#         <H>1.52848600e-001</H>
#         <I>-4.69407800e-004</I>
#         <J>6.03980100e-005</J>
#         <CPcor>-9.57000000e-008</CPcor>
#         <CTcor>3.2500e-006</CTcor>
#         <!-- WBOTC not applicable unless ConductivityType = 1. -->
#         <WBOTC>0.00000000e+000</WBOTC>
#       </Coefficients>
#       <Slope>1.00000000</Slope>
#       <Offset>0.00000</Offset>
#     </ConductivitySensor>
#   </sensor>
#   <sensor Channel="3" >
#     <!-- Count, Pressure, Strain Gauge -->
#     <PressureSensor SensorID="46" >
#       <SerialNumber>4268</SerialNumber>
#       <CalibrationDate>22-Nov-05</CalibrationDate>
#       <PA0>1.16634000e-001</PA0>
#       <PA1>1.56200800e-003</PA1>
#       <PA2>7.52185600e-012</PA2>
#       <PTEMPA0>-7.18702600e+001</PTEMPA0>
#       <PTEMPA1>4.81936000e+001</PTEMPA1>
#       <PTEMPA2>-2.28784500e-002</PTEMPA2>
#       <PTCA0>5.24479300e+005</PTCA0>
#       <PTCA1>6.70547700e+000</PTCA1>
#       <PTCA2>-1.52562300e-001</PTCA2>
#       <PTCB0>2.48532500e+001</PTCB0>
#       <PTCB1>-3.50000000e-004</PTCB1>
#       <PTCB2>0.00000000e+000</PTCB2>
#       <Offset>0.000000</Offset>
#     </PressureSensor>
#   </sensor>
#   <sensor Channel="4" >
#     <!-- A/D voltage 0, Oxygen, SBE 43 -->
#     <OxygenSensor SensorID="38" >
#       <SerialNumber>0268</SerialNumber>
#       <CalibrationDate>29-Feb-20</CalibrationDate>
#       <Use2007Equation>1</Use2007Equation>
#       <CalibrationCoefficients equation="0" >
#         <!-- Coefficients for Owens-Millard equation. -->
#         <Boc>0.0000</Boc>
#         <Soc>3.1260e-001</Soc>
#         <offset>-0.4337</offset>
#         <Pcor>1.35e-004</Pcor>
#         <Tcor>0.0023</Tcor>
#         <Tau>0.0</Tau>
#       </CalibrationCoefficients>
#       <CalibrationCoefficients equation="1" >
#         <!-- Coefficients for Sea-Bird equation - SBE calibration in 2007 and later. -->
#         <Soc>5.4910e-001</Soc>
#         <offset>-0.4386</offset>
#         <A>-3.6337e-003</A>
#         <B> 1.0518e-004</B>
#         <C>-1.0368e-006</C>
#         <D0> 2.5826e+000</D0>
#         <D1> 1.92634e-004</D1>
#         <D2>-4.64803e-002</D2>
#         <E> 3.6000e-002</E>
#         <Tau20> 1.2800</Tau20>
#         <H1>-3.3000e-002</H1>
#         <H2> 5.0000e+003</H2>
#         <H3> 1.4500e+003</H3>
#       </CalibrationCoefficients>
#     </OxygenSensor>
#   </sensor>
#   <sensor Channel="5" >
#     <!-- A/D voltage 1, Transmissometer, Chelsea/Seatech -->
#     <TransChelseaSeatechWetlabCStarSensor SensorID="59" >
#       <SerialNumber>CST-612PR</SerialNumber>
#       <CalibrationDate>6/27/02</CalibrationDate>
#       <M>19.4066</M>
#       <B>-1.1062</B>
#       <PathLength>0.250</PathLength>
#     </TransChelseaSeatechWetlabCStarSensor>
#   </sensor>
#   <sensor Channel="6" >
#     <!-- A/D voltage 2, Fluorometer, Chelsea Minitracka -->
#     <FluoroChelseaMinitrackaSensor SensorID="6" >
#       <SerialNumber>175011</SerialNumber>
#       <CalibrationDate>26-Mar-97</CalibrationDate>
#       <Vacetone>0.013</Vacetone>
#       <Vacetone100>3.612</Vacetone100>
#       <Offset>0.000</Offset>
#     </FluoroChelseaMinitrackaSensor>
#   </sensor>
#   <sensor Channel="7" >
#     <!-- A/D voltage 3, PAR/Irradiance, Biospherical/Licor -->
#     <PAR_BiosphericalLicorChelseaSensor SensorID="42" >
#       <SerialNumber>6404</SerialNumber>
#       <CalibrationDate>29-Nov-05</CalibrationDate>
#       <M>-0.76668700</M>
#       <B>-3.43363000</B>
#       <CalibrationConstant>3.42000000</CalibrationConstant>
#       <Multiplier>1.00000000</Multiplier>
#       <Offset>0.00000000</Offset>
#     </PAR_BiosphericalLicorChelseaSensor>
#   </sensor>
# </Sensors>
# datcnv_date = Jun 04 2024 15:04:44, 7.26.7.129 [datcnv_vars = 15]
# datcnv_in = C:\Users\ir64\OneDrive - The University of Waikato\Documents\Sampling\CTD casts\2024.02 CTD casts\2024.02 Hex files\Feb144.hex C:\Users\ir64\OneDrive - The University of Waikato\Documents\Sampling\CTD Documents\New 4268 & 6165 con files\20200723_SBE19_4268.xmlcon
# datcnv_skipover = 0
# datcnv_ox_hysteresis_correction = yes
# datcnv_ox_tau_correction = yes
# file_type = ascii
*END*
     -0.635    22.4749    22.4803     -1.177  -1.117686     -0.903     8.3970     96.916    8.66420    8.64617 1.8491e+02    -0.3612     1.3016    72.2234   997.6601  0.000e+00
     -0.635    22.4761    22.4815     -1.273  -1.208838     -0.903     8.3986     96.937    8.66401    8.64597 1.6596e+02    -0.3612     1.3598    71.1811   997.6598  0.000e+00
     -0.636    22.4778    22.4832     -1.273  -1.208838     -0.905     8.3937     96.883    8.66374    8.64570 1.5423e+02    -0.3612     1.3486    71.3795   997.6594  0.000e+00
     -0.634    22.4790    22.4844     -1.369  -1.299990     -0.902     8.3932     96.880    8.66352    8.64549 1.5643e+02    -0.3612     1.3093    72.0842   997.6591  0.000e+00
     -0.636    22.4804    22.4858     -1.369  -1.299990     -0.905     8.3967     96.923    8.66330    8.64526 1.8538e+02    -0.3612     1.2747    72.7105   997.6588  0.000e+00
     -0.635    22.4815    22.4869     -1.369  -1.299990     -0.903     8.3956     96.912    8.66311    8.64507 2.1004e+02    -0.3612     1.2574    73.0259   997.6586  0.000e+00
     -0.638    22.4829    22.4883     -1.273  -1.208838     -0.908     8.3937     96.893    8.66288    8.64485 2.4193e+02    -0.0432     1.2553    73.0644   997.6582  0.000e+00
     -0.634    22.4845    22.4899     -1.273  -1.208838     -0.902     8.3965     96.928    8.66261    8.64457 2.4000e+02    -0.0665     1.2602    72.9756   997.6579  0.000e+00
     -0.635    22.4863    22.4916     -1.369  -1.299990     -0.903     8.3926     96.887    8.66233    8.64429 2.3635e+02    -0.0263     1.2659    72.8705   997.6575  0.000e+00
     -0.634    22.4882    22.4936     -1.369  -1.299990     -0.902     8.3934     96.899    8.66200    8.64396 2.4788e+02    -0.1005     1.2694    72.8068   997.6570  0.000e+00
     -0.632    22.4899    22.4953     -1.465  -1.391142     -0.899     8.3951     96.922    8.66173    8.64369 2.5080e+02    -0.1217     1.2697    72.8023   997.6566  0.000e+00
     -0.633    22.4914    22.4968     -1.369  -1.299990     -0.900     8.3949     96.922    8.66148    8.64343 2.5085e+02    -0.0729     1.2681    72.8305   997.6563  0.000e+00
     -0.635    22.4929    22.4983     -1.368  -1.299990     -0.903     8.3929     96.902    8.66122    8.64318 2.5702e+02    -0.1195     1.2667    72.8571   997.6559  0.000e+00
     -0.634    22.4947    22.5001     -1.272  -1.208838     -0.902     8.3935     96.912    8.66092    8.64288 2.8644e+02    -0.1768     1.2657    72.8749   997.6555  0.000e+00
     -0.633    22.4962    22.5016     -1.464  -1.391142     -0.900     8.3944     96.925    8.66068    8.64264 2.9639e+02    -0.0729     1.2652    72.8838   997.6552  0.000e+00
     -0.635    22.4976    22.5030     -1.368  -1.299990     -0.903     8.3976     96.965    8.66045    8.64241 3.0319e+02     0.5016     1.2655    72.8779   997.6548  0.000e+00
     -0.636    22.4991    22.5045     -1.272  -1.208838     -0.905     8.3937     96.923    8.66020    8.64215 3.1487e+02     1.3220     1.2642    72.9015   997.6545  0.000e+00
     -0.626    22.4998    22.5052     -1.528  -1.451909     -0.891     8.3940     96.928    8.66009    8.64204 3.1329e+02     1.8732     1.2645    72.8971   997.6544  0.000e+00
     -0.516    22.5222    22.5276    207.721 197.449371     -0.735     8.3829     96.897    8.65134    8.63327 2.5873e+02     1.8880     1.2651    72.8853   997.7264  0.000e+00
     -0.419    22.6835    22.6889    189.523 180.763414     -0.595     8.3610     96.937    8.62518    8.60700 2.3157e+02     7.0860     6.8372    18.0990   997.6828  0.000e+00
     -0.344    22.8472    22.8527    136.082 130.237424     -0.489     8.3339     96.910    8.59958    8.58129 2.3009e+02    13.6301    13.4079     3.5015   997.6259  0.000e+00
     -0.316    22.9761    22.9816    119.214 114.401289     -0.450     8.3117     96.885    8.57893    8.56056 2.2375e+02    12.3667    10.5973     7.0698   997.5898  0.000e+00
     -0.303    23.0657    23.0713    113.334 108.962381     -0.431     8.3004     96.916    8.56449    8.54606 2.2161e+02     9.9563    12.6129     4.2714   997.5665  0.000e+00
     -0.274    23.1155    23.1211    109.535 105.418718     -0.389     8.2897     96.882    8.55650    8.53804 2.2716e+02     8.4830    15.2000     2.2371   997.5535  0.000e+00
     -0.221    23.1440    23.1496    106.552 102.608674     -0.314     8.2881     96.915    8.55196    8.53348 2.2273e+02     7.5799    12.4299     4.4713   997.5460  0.000e+00
     -0.146    23.1592    23.1647    106.360 102.455962     -0.208     8.2977     97.055    8.54951    8.53102 2.2421e+02     8.5084     4.4352    32.9956   997.5426  0.000e+00
     -0.089    23.1658    23.1713    111.291 107.220996     -0.127     8.3224     97.357    8.54833    8.52984 1.6268e+02     7.5948     2.2607    56.8264   997.5430  0.000e+00
     -0.065    23.1672    23.1728    115.061 110.856620     -0.092     8.3514     97.700    8.54801    8.52952 1.4303e+02     6.4521     1.9392    61.5821   997.5440  0.000e+00
     -0.057    23.1536    23.1592    118.679 114.309547     -0.081     8.4052     98.305    8.55013    8.53164 1.5867e+02     5.6593     1.8656    62.7252   997.5486  0.000e+00
     -0.051    23.1206    23.1262    122.793 118.190982     -0.072     8.4626     98.915    8.55538    8.53692 1.3861e+02     4.9640     1.8458    63.0361   997.5579  0.000e+00
     -0.056    23.0957    23.1012    122.189 117.549130     -0.080     8.5109     99.433    8.55944    8.54099 1.6198e+02     4.3047     1.8449    63.0509   997.5636  0.000e+00
     -0.056    23.0808    23.0863    118.446 113.912305     -0.080     8.5536     99.903    8.56193    8.54350 1.6220e+02     3.8107     1.8224    63.4063   997.5658  0.000e+00
     -0.055    23.0708    23.0764    116.404 111.926081     -0.078     8.5803    100.196    8.56360    8.54517 1.5408e+02     3.5839     1.8417    63.1013   997.5675  0.000e+00
     -0.048    23.0690    23.0745    114.788 110.367794     -0.069     8.5903    100.308    8.56393    8.54550 1.4621e+02     3.3295     1.8313    63.2656   997.5674  0.000e+00
     -0.047    23.0824    23.0879    110.627 106.396227     -0.067     8.5815    100.229    8.56185    8.54342 1.4461e+02     3.2787     1.8163    63.5040   997.5628  0.000e+00
     -0.042    23.1031    23.1086    107.087 103.036278     -0.059     8.5721    100.158    8.55857    8.54012 1.4166e+02     3.0836     1.8253    63.3604   997.5567  0.000e+00
     -0.041    23.1233    23.1289    104.885 100.959497     -0.058     8.5637    100.097    8.55534    8.53688 1.5726e+02     2.9861     1.8998    62.1922   997.5511  0.000e+00
     -0.031    23.1402    23.1457    103.833  99.982260     -0.044     8.6073    100.639    8.55264    8.53417 1.3405e+02     2.8886     1.8382    63.1560   997.5468  0.000e+00
     -0.019    23.1533    23.1589    103.551  99.737955     -0.027     8.6091    100.685    8.55052    8.53204 1.2993e+02     2.7868     1.8919    62.3150   997.5436  0.000e+00
     -0.006    23.1629    23.1684    103.594  99.799027     -0.008     8.5235     99.702    8.54897    8.53048 1.3023e+02     2.6745     1.8355    63.1990   997.5414  0.000e+00
     -0.001    23.1700    23.1756    103.071  99.310431     -0.002     8.3706     97.926    8.54782    8.52933 1.3712e+02     2.5854     1.8351    63.2064   997.5395  0.000e+00
     -0.001    23.1749    23.1804    103.251  99.493651     -0.002     8.1924     95.851    8.54703    8.52854 1.3991e+02     2.5876     1.8321    63.2538   997.5384  0.000e+00
     -0.011    23.1784    23.1839    103.053  99.310429     -0.016     7.9824     93.400    8.54647    8.52797 1.2391e+02     2.5261     1.8280    63.3174   997.5375  0.000e+00
     -0.020    23.1811    23.1867    102.446  98.730238     -0.028     7.7758     90.987    8.54604    8.52755 1.4454e+02     2.4519     1.8057    63.6728   997.5366  0.000e+00
     -0.022    23.1833    23.1889    102.029  98.333275     -0.031     7.5804     88.705    8.54570    8.52720 1.4149e+02     2.5388     1.8009    63.7483   997.5359  0.000e+00
     -0.019    23.1854    23.1910    101.834  98.150064     -0.027     7.4068     86.677    8.54536    8.52686 1.2693e+02     2.5155     1.8152    63.5203   997.5354  0.000e+00
     -0.014    23.1870    23.1925    102.877  99.157743     -0.020     7.3055     85.493    8.54508    8.52658 1.3982e+02     2.3904     1.8012    63.7439   997.5354  0.000e+00
     -0.010    23.1860    23.1916    107.410 103.524935     -0.014     7.2664     85.036    8.54514    8.52664 1.3867e+02     2.5155     1.8061    63.6654   997.5372  0.000e+00
     -0.009    23.1831    23.1887    107.828 103.922000     -0.013     7.2497     84.836    8.54560    8.52710 1.2895e+02     2.3798     1.7978    63.7986   997.5380  0.000e+00
     -0.013    23.1828    23.1883    103.234  99.493648     -0.019     7.2342     84.653    8.54576    8.52726 1.4922e+02     2.3798     1.7943    63.8534   997.5365  0.000e+00
     -0.017    23.1845    23.1901    103.135  99.402037     -0.023     7.2158     84.440    8.54548    8.52698 1.3947e+02     2.4858     1.8028    63.7187   997.5360  0.000e+00
     -0.019    23.1872    23.1927    101.831  98.150064     -0.027     7.1853     84.087    8.54508    8.52658 1.3609e+02     2.5282     1.8068    63.6550   997.5350  0.000e+00
     -0.018    23.1889    23.1945    101.669  97.997389     -0.025     7.1654     83.857    8.54480    8.52630 1.3219e+02     2.5791     1.8124    63.5647   997.5345  0.000e+00
     -0.015    23.1896    23.1952    101.762  98.088993     -0.022     7.1266     83.404    8.54468    8.52618 1.3681e+02     2.5240     1.7983    63.7898   997.5344  0.000e+00
     -0.014    23.1898    23.1954    101.540  97.875250     -0.020     7.0714     82.759    8.54466    8.52616 1.1515e+02     2.3268     1.7966    63.8164   997.5342  0.000e+00
     -0.011    23.1894    23.1950    101.826  98.150063     -0.016     7.0015     81.940    8.54471    8.52621 1.2205e+02     2.4010     1.8078    63.6387   997.5344  0.000e+00
     -0.009    23.1896    23.1952    101.572  97.905785     -0.013     6.9094     80.862    8.54469    8.52618 1.3867e+02     2.4710     1.8093    63.6150   997.5343  0.000e+00
     -0.010    23.1893    23.1948    101.415  97.753112     -0.014     6.8184     79.796    8.54475    8.52624 1.3969e+02     2.4964     1.8250    63.3663   997.5343  0.000e+00
     -0.012    23.1893    23.1948    101.415  97.753112     -0.017     6.7328     78.794    8.54475    8.52624 1.2423e+02     2.4752     1.8005    63.7542   997.5343  0.000e+00
     -0.012    23.1895    23.1951    101.256  97.600441     -0.017     6.6342     77.641    8.54471    8.52620 1.3700e+02     2.4371     1.8072    63.6476   997.5342  0.000e+00
