* Sea-Bird SBE19plus Data File:
* FileName = C:\Users\instrument\Desktop\Iola Rosa. CTD Casts\February 2024\Feb134.hex
* Software Version 1.59
* Temperature SN =  4268
* Conductivity SN =  4268
* System UpLoad Time = Feb 26 2024 13:52:23
* ds
* SeacatPlus V 1.6  SERIAL NO. 4268    26 Feb 2024  13:53:56
* vbatt = 12.7, vlith =  7.9, ioper =  61.6 ma, ipump =  85.0 ma,
* iext01 =  39.7 ma
* iext23 =  52.7 ma
*
* status = not logging
* number of scans to average = 1
* samples = 213406, free = 227668, casts = 152
* mode = profile, minimum cond freq = 2567, pump delay = 60 sec
* autorun = no, ignore magnetic switch = no
* battery type = alkaline, battery cutoff =  7.3 volts
* pressure sensor = strain gauge, range = 508.0
* SBE 38 = no, Gas Tension Device = no
* Ext Volt 0 = yes, Ext Volt 1 = yes, Ext Volt 2 = yes, Ext Volt 3 = yes
* echo commands = yes
* output format = raw HEX

* S>
*
* SeacatPlus V 1.6  SERIAL NO. 4268    26 Feb 2024  13:55:03
* temperature:  06-dec-05
*     TA0 = 1.161749e-03
*     TA1 = 2.891779e-04
*     TA2 = -3.393560e-06
*     TA3 = 2.889319e-07
*     TOFFSET = 0.000000e+00
* conductivity:  06-dec-05
*     G = -9.977815e-01
*     H = 1.528486e-01
*     I = -4.694078e-04
*     J = 6.039801e-05
*     CF0 = 2.561972e+03
*     CPCOR = -9.570000e-08
*     CTCOR = 3.250000e-06
*     CSLOPE = 1.000000e+00
* pressure S/N = 1980, range = 508 psia:  22-nov-05
*     PA0 = 1.166340e-01
*     PA1 = 1.562008e-03
*     PA2 = 7.521856e-12
*     PTCA0 = 5.244793e+05
*     PTCA1 = 6.705477e+00
*     PTCA2 = -1.525623e-01
*     PTCB0 = 2.485325e+01
*     PTCB1 = -3.500000e-04
*     PTCB2 = 0.000000e+00
*     PTEMPA0 = -7.187026e+01
*     PTEMPA1 = 4.819360e+01
*     PTEMPA2 = -2.287845e-02
*     POFFSET = 0.000000e+00
* volt 0: offset = -4.716333e-02, slope = 1.249825e+00
* volt 1: offset = -4.705000e-02, slope = 1.250722e+00
* volt 2: offset = -4.720000e-02, slope = 1.250906e+00
* volt 3: offset = 0.000000e+00, slope = 1.000000e+00
*     EXTFREQSF = 1.000004e+00
* dh
* cast 134 09 Feb 2024 09:02:10 samples 192647 to 193381, avg = 1, stop = mag switch

* S>
# nquan = 16
# nvalues = 580                                   
# units = specified
# name 0 = depFM: Depth [fresh water, m]
# name 1 = tv290C: Temperature [ITS-90, deg C]
# name 2 = tv268C: Temperature [IPTS-68, deg C]
# name 3 = specc: Specific Conductance [uS/cm]
# name 4 = c0uS/cm: Conductivity [uS/cm]
# name 5 = prdE: Pressure, Strain Gauge [psi]
# name 6 = sbeox0Mg/L: Oxygen, SBE 43 [mg/l]
# name 7 = sbeox0PS: Oxygen, SBE 43 [% saturation]
# name 8 = oxsolMg/L: Oxygen Saturation, Garcia & Gordon [mg/l]
# name 9 = oxsatMg/L: Oxygen Saturation, Weiss [mg/l]
# name 10 = par: PAR/Irradiance, Biospherical/Licor
# name 11 = flCM: Fluorescence, Chelsea Mini Chl Con [ug/l]
# name 12 = bat: Beam Attenuation, Chelsea/Seatech [1/m]
# name 13 = xmiss: Beam Transmission, Chelsea/Seatech [%]
# name 14 = density00: Density [density, kg/m^3]
# name 15 = flag:  0.000e+00
# span 0 =     -0.703,     16.017                 
# span 1 =     9.7894,    23.9626                 
# span 2 =     9.7918,    23.9684                 
# span 3 =      1.563,    265.511                 
# span 4 =   1.525912, 184.849615                 
# span 5 =     -1.000,     22.781                 
# span 6 =    -0.7182,     8.4958                 
# span 7 =     -6.946,    100.701                 
# span 8 =    8.42147,   11.34080                 
# span 9 =    8.40250,   11.32973                 
# span 10 = 1.0992e-01, 1.0837e+02                
# span 11 =    -0.3612,    30.2543                
# span 12 =     1.1655,     4.5664                
# span 13 =    31.9311,    74.7242                
# span 14 =   997.3447,   999.8917                
# span 15 = 0.0000e+00, 0.0000e+00                
# interval = seconds: 0.25
# start_time = Feb 09 2024 09:02:10 [Instrument's time stamp, header]
# bad_flag = -9.990e-29
# <Sensors count="7" >
#   <sensor Channel="1" >
#     <!-- Count, Temperature -->
#     <TemperatureSensor SensorID="58" >
#       <SerialNumber>4268</SerialNumber>
#       <CalibrationDate>06-Dec-05</CalibrationDate>
#       <A0>1.16174900e-003</A0>
#       <A1>2.89177900e-004</A1>
#       <A2>-3.39356000e-006</A2>
#       <A3>2.88931900e-007</A3>
#       <Slope>1.00000000</Slope>
#       <Offset>0.0000</Offset>
#     </TemperatureSensor>
#   </sensor>
#   <sensor Channel="2" >
#     <!-- Frequency 0, Conductivity -->
#     <ConductivitySensor SensorID="3" >
#       <SerialNumber>4268</SerialNumber>
#       <CalibrationDate>06-Dec-05</CalibrationDate>
#       <UseG_J>1</UseG_J>
#       <!-- Cell const and series R are applicable only for wide range sensors. -->
#       <SeriesR>0.0000</SeriesR>
#       <CellConst>2000.0000</CellConst>
#       <ConductivityType>0</ConductivityType>
#       <Coefficients equation="0" >
#         <A>0.00000000e+000</A>
#         <B>0.00000000e+000</B>
#         <C>0.00000000e+000</C>
#         <D>0.00000000e+000</D>
#         <M>0.0</M>
#         <CPcor>-9.57000000e-008</CPcor>
#       </Coefficients>
#       <Coefficients equation="1" >
#         <G>-9.97781500e-001</G>
#         <H>1.52848600e-001</H>
#         <I>-4.69407800e-004</I>
#         <J>6.03980100e-005</J>
#         <CPcor>-9.57000000e-008</CPcor>
#         <CTcor>3.2500e-006</CTcor>
#         <!-- WBOTC not applicable unless ConductivityType = 1. -->
#         <WBOTC>0.00000000e+000</WBOTC>
#       </Coefficients>
#       <Slope>1.00000000</Slope>
#       <Offset>0.00000</Offset>
#     </ConductivitySensor>
#   </sensor>
#   <sensor Channel="3" >
#     <!-- Count, Pressure, Strain Gauge -->
#     <PressureSensor SensorID="46" >
#       <SerialNumber>4268</SerialNumber>
#       <CalibrationDate>22-Nov-05</CalibrationDate>
#       <PA0>1.16634000e-001</PA0>
#       <PA1>1.56200800e-003</PA1>
#       <PA2>7.52185600e-012</PA2>
#       <PTEMPA0>-7.18702600e+001</PTEMPA0>
#       <PTEMPA1>4.81936000e+001</PTEMPA1>
#       <PTEMPA2>-2.28784500e-002</PTEMPA2>
#       <PTCA0>5.24479300e+005</PTCA0>
#       <PTCA1>6.70547700e+000</PTCA1>
#       <PTCA2>-1.52562300e-001</PTCA2>
#       <PTCB0>2.48532500e+001</PTCB0>
#       <PTCB1>-3.50000000e-004</PTCB1>
#       <PTCB2>0.00000000e+000</PTCB2>
#       <Offset>0.000000</Offset>
#     </PressureSensor>
#   </sensor>
#   <sensor Channel="4" >
#     <!-- A/D voltage 0, Oxygen, SBE 43 -->
#     <OxygenSensor SensorID="38" >
#       <SerialNumber>0268</SerialNumber>
#       <CalibrationDate>29-Feb-20</CalibrationDate>
#       <Use2007Equation>1</Use2007Equation>
#       <CalibrationCoefficients equation="0" >
#         <!-- Coefficients for Owens-Millard equation. -->
#         <Boc>0.0000</Boc>
#         <Soc>3.1260e-001</Soc>
#         <offset>-0.4337</offset>
#         <Pcor>1.35e-004</Pcor>
#         <Tcor>0.0023</Tcor>
#         <Tau>0.0</Tau>
#       </CalibrationCoefficients>
#       <CalibrationCoefficients equation="1" >
#         <!-- Coefficients for Sea-Bird equation - SBE calibration in 2007 and later. -->
#         <Soc>5.4910e-001</Soc>
#         <offset>-0.4386</offset>
#         <A>-3.6337e-003</A>
#         <B> 1.0518e-004</B>
#         <C>-1.0368e-006</C>
#         <D0> 2.5826e+000</D0>
#         <D1> 1.92634e-004</D1>
#         <D2>-4.64803e-002</D2>
#         <E> 3.6000e-002</E>
#         <Tau20> 1.2800</Tau20>
#         <H1>-3.3000e-002</H1>
#         <H2> 5.0000e+003</H2>
#         <H3> 1.4500e+003</H3>
#       </CalibrationCoefficients>
#     </OxygenSensor>
#   </sensor>
#   <sensor Channel="5" >
#     <!-- A/D voltage 1, Transmissometer, Chelsea/Seatech -->
#     <TransChelseaSeatechWetlabCStarSensor SensorID="59" >
#       <SerialNumber>CST-612PR</SerialNumber>
#       <CalibrationDate>6/27/02</CalibrationDate>
#       <M>19.4066</M>
#       <B>-1.1062</B>
#       <PathLength>0.250</PathLength>
#     </TransChelseaSeatechWetlabCStarSensor>
#   </sensor>
#   <sensor Channel="6" >
#     <!-- A/D voltage 2, Fluorometer, Chelsea Minitracka -->
#     <FluoroChelseaMinitrackaSensor SensorID="6" >
#       <SerialNumber>175011</SerialNumber>
#       <CalibrationDate>26-Mar-97</CalibrationDate>
#       <Vacetone>0.013</Vacetone>
#       <Vacetone100>3.612</Vacetone100>
#       <Offset>0.000</Offset>
#     </FluoroChelseaMinitrackaSensor>
#   </sensor>
#   <sensor Channel="7" >
#     <!-- A/D voltage 3, PAR/Irradiance, Biospherical/Licor -->
#     <PAR_BiosphericalLicorChelseaSensor SensorID="42" >
#       <SerialNumber>6404</SerialNumber>
#       <CalibrationDate>29-Nov-05</CalibrationDate>
#       <M>-0.76668700</M>
#       <B>-3.43363000</B>
#       <CalibrationConstant>3.42000000</CalibrationConstant>
#       <Multiplier>1.00000000</Multiplier>
#       <Offset>0.00000000</Offset>
#     </PAR_BiosphericalLicorChelseaSensor>
#   </sensor>
# </Sensors>
# datcnv_date = Jun 04 2024 15:04:43, 7.26.7.129 [datcnv_vars = 15]
# datcnv_in = C:\Users\ir64\OneDrive - The University of Waikato\Documents\Sampling\CTD casts\2024.02 CTD casts\2024.02 Hex files\Feb134.hex C:\Users\ir64\OneDrive - The University of Waikato\Documents\Sampling\CTD Documents\New 4268 & 6165 con files\20200723_SBE19_4268.xmlcon
# datcnv_skipover = 0
# datcnv_ox_hysteresis_correction = yes
# datcnv_ox_tau_correction = yes
# file_type = ascii
*END*
     -0.703    23.7408    23.7465      4.776   4.656137     -1.000     7.6864     90.873    8.45837    8.43953 1.0837e+02     0.5143     1.1655    74.7242   997.3677  0.000e+00
     -0.686    23.7397    23.7454      3.311   3.227722     -0.976     7.6883     90.894    8.45856    8.43972 7.9773e+01     0.4507     4.5664    31.9311   997.3678  0.000e+00
     -0.642    23.7414    23.7471      3.311   3.227722     -0.914     7.6893     90.908    8.45829    8.43945 3.2011e+01    -0.3612     2.6628    51.3910   997.3676  0.000e+00
     -0.591    23.7733    23.7790      3.495   3.410067     -0.840     7.6806     90.860    8.45323    8.43437 2.2716e+01    -0.3612     1.9471    61.4607   997.3600  0.000e+00
     -0.558    23.8007    23.8064      3.649   3.562022     -0.793     7.6848     90.956    8.44888    8.43001 1.6768e+01    -0.3612     1.6565    66.0921   997.3535  0.000e+00
     -0.569    23.8077    23.8134      3.151   3.075768     -0.809     7.7009     91.159    8.44778    8.42890 1.5729e+01    -0.3612     1.5956    67.1064   997.3517  0.000e+00
     -0.617    23.8091    23.8148      2.497   2.437577     -0.878     7.7210     91.399    8.44756    8.42868 1.4918e+01     0.5291     1.5903    67.1952   997.3510  0.000e+00
     -0.626    23.8195    23.8252      1.563   1.525912     -0.890     7.7357     91.591    8.44592    8.42704 1.7912e+01     1.2817     1.5877    67.2381   997.3483  0.000e+00
     -0.583    23.8245    23.8303      1.656   1.617077     -0.829     7.7474     91.738    8.44513    8.42624 2.8324e+01     1.5764     1.6719    65.8375   997.3473  0.000e+00
     -0.536    23.8306    23.8363     52.868  51.637931     -0.762     7.7491     91.778    8.44324    8.42435 6.0776e+01     2.0449     1.7244    64.9787   997.3607  0.000e+00
     -0.490    23.8495    23.8552     96.856  94.638641     -0.696     7.7483     91.812    8.43932    8.42041 6.1112e+01     2.1699     1.7407    64.7151   997.3709  0.000e+00
     -0.451    23.8870    23.8927     96.782  94.638629     -0.642     7.7404     91.783    8.43339    8.41447 6.2902e+01     2.4413     1.6801    65.7027   997.3618  0.000e+00
     -0.425    23.9141    23.9199     96.635  94.547033     -0.604     7.7344     91.758    8.42911    8.41017 6.4419e+01     2.8398     1.6445    66.2905   997.3552  0.000e+00
     -0.416    23.9291    23.9348     96.699  94.638617     -0.592     7.7103     91.497    8.42676    8.40781 6.4715e+01     3.0645     1.6166    66.7540   997.3516  0.000e+00
     -0.418    23.9382    23.9439     96.681  94.638614     -0.595     7.6744     91.087    8.42533    8.40637 6.6855e+01     3.2172     1.6075    66.9065   997.3494  0.000e+00
     -0.428    23.9429    23.9487     96.578  94.547024     -0.609     7.5971     90.177    8.42458    8.40562 6.6962e+01     3.2257     1.6197    66.7022   997.3481  0.000e+00
     -0.437    23.9448    23.9506     96.574  94.547023     -0.621     7.5121     89.172    8.42428    8.40532 7.0118e+01     3.2193     1.6301    66.5289   997.3476  0.000e+00
     -0.442    23.9451    23.9508     96.667  94.638612     -0.629     7.4755     88.738    8.42424    8.40527 7.3710e+01     3.2956     1.6165    66.7555   997.3476  0.000e+00
     -0.441    23.9450    23.9507     96.574  94.547023     -0.628     7.4549     88.493    8.42425    8.40529 7.8020e+01     3.3571     1.6123    66.8265   997.3476  0.000e+00
     -0.431    23.9445    23.9503     96.668  94.638612     -0.614     7.4177     88.050    8.42432    8.40536 8.5254e+01     3.3931     1.6016    67.0057   997.3477  0.000e+00
     -0.416    23.9444    23.9502     96.575  94.547023     -0.592     7.3582     87.344    8.42434    8.40538 9.2882e+01     3.3995     1.6023    66.9938   997.3478  0.000e+00
     -0.398    23.9448    23.9506     96.668  94.638612     -0.567     7.2764     86.374    8.42428    8.40532 9.6417e+01     3.4864     1.6147    66.7865   997.3478  0.000e+00
     -0.385    23.9444    23.9502     96.575  94.547024     -0.548     7.1875     85.319    8.42434    8.40538 9.9332e+01     3.4716     1.6093    66.8769   997.3479  0.000e+00
     -0.380    23.9444    23.9502     96.575  94.547024     -0.540     7.0946     84.216    8.42434    8.40538 9.8539e+01     3.5458     1.6045    66.9568   997.3480  0.000e+00
     -0.381    23.9445    23.9503     96.575  94.547024     -0.542     6.9784     82.836    8.42432    8.40536 9.6816e+01     3.4143     1.6035    66.9731   997.3479  0.000e+00
     -0.391    23.9444    23.9502     96.544  94.516494     -0.556     6.8470     81.277    8.42434    8.40538 9.6263e+01     3.3359     1.5919    67.1671   997.3479  0.000e+00
     -0.396    23.9434    23.9491     96.577  94.547024     -0.564     6.7292     79.876    8.42451    8.40555 9.4840e+01     3.2193     1.5961    67.0975   997.3482  0.000e+00
     -0.385    23.9426    23.9484     96.672  94.638613     -0.548     6.6503     78.939    8.42462    8.40566 9.6616e+01     3.1387     1.6097    66.8695   997.3484  0.000e+00
     -0.376    23.9395    23.9452     96.584  94.547025     -0.535     6.6076     78.428    8.42512    8.40616 9.9150e+01     3.1705     1.6154    66.7747   997.3492  0.000e+00
     -0.363    23.9318    23.9375     96.506  94.455440     -0.517     6.5648     77.908    8.42634    8.40738 1.0087e+02     3.2808     1.6152    66.7777   997.3511  0.000e+00
     -0.348    23.9265    23.9323     96.610  94.547030     -0.495     6.5332     77.526    8.42716    8.40821 1.0119e+02     3.2829     1.6167    66.7525   997.3525  0.000e+00
     -0.340    23.9238    23.9296     96.522  94.455442     -0.484     6.5367     77.563    8.42759    8.40864 1.0229e+02     3.2977     1.6088    66.8843   997.3532  0.000e+00
     -0.309    23.9220    23.9277     96.619  94.547031     -0.440     6.5811     78.087    8.42788    8.40893 9.3352e+01     3.2765     1.6119    66.8324   997.3538  0.000e+00
     -0.266    23.9219    23.9276     96.619  94.547032     -0.378     6.6339     78.713    8.42790    8.40895 9.5910e+01     3.2299     1.6056    66.9376   997.3540  0.000e+00
     -0.250    23.9226    23.9283     96.618  94.547032     -0.356     6.6739     79.190    8.42778    8.40883 9.5166e+01     3.2617     1.6088    66.8843   997.3539  0.000e+00
     -0.247    23.9239    23.9297     96.615  94.547031     -0.351     6.6870     79.347    8.42757    8.40862 9.3545e+01     3.2002     1.5958    67.1019   997.3536  0.000e+00
     -0.250    23.9274    23.9332     96.702  94.638619     -0.356     6.6692     79.141    8.42701    8.40806 9.0363e+01     3.2638     1.6178    66.7347   997.3528  0.000e+00
     -0.256    23.9340    23.9398     96.595  94.547028     -0.364     6.6421     78.829    8.42598    8.40703 8.7751e+01     3.1727     1.6114    66.8413   997.3511  0.000e+00
     -0.267    23.9395    23.9452     96.678  94.638615     -0.379     6.6278     78.667    8.42511    8.40616 8.8803e+01     3.1748     1.6125    66.8236   997.3497  0.000e+00
     -0.272    23.9433    23.9490     96.577  94.547025     -0.387     6.6270     78.664    8.42452    8.40556 8.7772e+01     3.3359     1.6097    66.8695   997.3487  0.000e+00
     -0.259    23.9454    23.9512     96.479  94.455436     -0.368     6.6327     78.734    8.42418    8.40522 8.9477e+01     3.3634     1.6011    67.0131   997.3482  0.000e+00
     -0.257    23.9459    23.9516     96.572  94.547024     -0.365     6.6374     78.790    8.42411    8.40515 9.0260e+01     3.2341     1.6196    66.7051   997.3482  0.000e+00
     -0.267    23.9425    23.9482     96.579  94.547025     -0.379     6.6369     78.779    8.42465    8.40569 9.0260e+01     3.1154     1.6198    66.7007   997.3490  0.000e+00
     -0.268    23.9347    23.9405     96.594  94.547028     -0.381     6.6453     78.868    8.42587    8.40691 9.1070e+01     3.1811     1.6096    66.8709   997.3509  0.000e+00
     -0.273    23.9287    23.9344     96.575  94.516500     -0.389     6.6571     78.998    8.42682    8.40787 8.7110e+01     3.1811     1.6040    66.9642   997.3523  0.000e+00
     -0.266    23.9270    23.9327     96.516  94.455442     -0.378     6.6700     79.150    8.42709    8.40814 9.1405e+01     3.2193     1.6073    66.9094   997.3527  0.000e+00
     -0.260    23.9298    23.9355     96.604  94.547029     -0.370     6.6823     79.300    8.42665    8.40769 9.3824e+01     3.0751     1.6070    66.9154   997.3521  0.000e+00
     -0.258    23.9319    23.9376     96.600  94.547029     -0.367     6.6928     79.427    8.42632    8.40737 9.5713e+01     3.1451     1.5992    67.0457   997.3516  0.000e+00
     -0.264    23.9350    23.9407     96.593  94.547028     -0.376     6.6731     79.198    8.42583    8.40687 9.8494e+01     3.2193     1.6079    66.9006   997.3508  0.000e+00
     -0.291    23.9310    23.9368     96.508  94.455441     -0.414     6.6464     78.876    8.42645    8.40750 1.0201e+02     3.2108     1.6255    66.6059   997.3516  0.000e+00
     -0.350    23.9211    23.9269     96.621  94.547031     -0.498     6.6231     78.584    8.42801    8.40906 9.7931e+01     3.2214     1.6002    67.0294   997.3538  0.000e+00
     -0.415    23.9118    23.9175     96.546  94.455445     -0.590     6.5526     77.735    8.42949    8.41054 9.5866e+01     3.2702     1.6202    66.6947   997.3558  0.000e+00
     -0.437    23.9069    23.9126     96.743  94.638623     -0.621     6.5026     77.134    8.43026    8.41132 9.0488e+01     3.1939     1.6183    66.7258   997.3570  0.000e+00
     -0.437    23.9122    23.9180     96.638  94.547033     -0.621     6.4448     76.456    8.42941    8.41047 8.6276e+01     3.1451     1.6263    66.5926   997.3557  0.000e+00
     -0.448    23.9205    23.9263     96.622  94.547031     -0.637     6.4362     76.366    8.42811    8.40916 8.2487e+01     3.0963     1.6354    66.4416   997.3536  0.000e+00
     -0.450    23.9252    23.9309     96.613  94.547029     -0.640     6.4854     76.957    8.42737    8.40842 7.8792e+01     3.1748     1.6172    66.7436   997.3524  0.000e+00
     -0.445    23.9288    23.9345     96.606  94.547028     -0.632     6.5981     78.299    8.42680    8.40785 2.8279e+01     3.2151     1.6080    66.8976   997.3515  0.000e+00
     -0.472    23.9270    23.9327     96.609  94.547028     -0.671     6.6703     79.153    8.42709    8.40814 2.7136e+01     3.2744     1.5916    67.1730   997.3519  0.000e+00
     -0.482    23.9248    23.9306     96.613  94.547029     -0.685     6.7375     79.947    8.42743    8.40848 2.6310e+01     3.3592     1.6001    67.0309   997.3524  0.000e+00
     -0.464    23.9248    23.9306     96.613  94.547029     -0.660     6.7456     80.044    8.42743    8.40848 2.6364e+01     3.3316     1.5979    67.0664   997.3524  0.000e+00
