* Sea-Bird SBE19plus Data File:
* FileName = C:\Users\instrument\Desktop\Iola Rosa. CTD Cast. July.23\September 2023\15 January 2023 upload121.hex
* Software Version 1.59
* Temperature SN =  4268
* Conductivity SN =  4268
* System UpLoad Time = Jan 15 2024 13:57:00
* ds
* SeacatPlus V 1.6  SERIAL NO. 4268    15 Jan 2024  13:59:04
* vbatt = 11.9, vlith =  8.1, ioper =  61.6 ma, ipump =  88.8 ma,
* iext01 =  42.3 ma
* iext23 =  55.1 ma
*
* status = not logging
* number of scans to average = 1
* samples = 173964, free = 267110, casts = 121
* mode = profile, minimum cond freq = 2567, pump delay = 60 sec
* autorun = no, ignore magnetic switch = no
* battery type = alkaline, battery cutoff =  7.3 volts
* pressure sensor = strain gauge, range = 508.0
* SBE 38 = no, Gas Tension Device = no
* Ext Volt 0 = yes, Ext Volt 1 = yes, Ext Volt 2 = yes, Ext Volt 3 = yes
* echo commands = yes
* output format = raw HEX

* S>
*
* SeacatPlus V 1.6  SERIAL NO. 4268    15 Jan 2024  13:59:37
* temperature:  06-dec-05
*     TA0 = 1.161749e-03
*     TA1 = 2.891779e-04
*     TA2 = -3.393560e-06
*     TA3 = 2.889319e-07
*     TOFFSET = 0.000000e+00
* conductivity:  06-dec-05
*     G = -9.977815e-01
*     H = 1.528486e-01
*     I = -4.694078e-04
*     J = 6.039801e-05
*     CF0 = 2.561972e+03
*     CPCOR = -9.570000e-08
*     CTCOR = 3.250000e-06
*     CSLOPE = 1.000000e+00
* pressure S/N = 1980, range = 508 psia:  22-nov-05
*     PA0 = 1.166340e-01
*     PA1 = 1.562008e-03
*     PA2 = 7.521856e-12
*     PTCA0 = 5.244793e+05
*     PTCA1 = 6.705477e+00
*     PTCA2 = -1.525623e-01
*     PTCB0 = 2.485325e+01
*     PTCB1 = -3.500000e-04
*     PTCB2 = 0.000000e+00
*     PTEMPA0 = -7.187026e+01
*     PTEMPA1 = 4.819360e+01
*     PTEMPA2 = -2.287845e-02
*     POFFSET = 0.000000e+00
* volt 0: offset = -4.716333e-02, slope = 1.249825e+00
* volt 1: offset = -4.705000e-02, slope = 1.250722e+00
* volt 2: offset = -4.720000e-02, slope = 1.250906e+00
* volt 3: offset = 0.000000e+00, slope = 1.000000e+00
*     EXTFREQSF = 1.000004e+00
* dh
* cast 121 12 Jan 2024 14:50:06 samples 173172 to 173964, avg = 1, stop = mag switch

* S>
# nquan = 16
# nvalues = 632                                   
# units = specified
# name 0 = depFM: Depth [fresh water, m]
# name 1 = tv290C: Temperature [ITS-90, deg C]
# name 2 = tv268C: Temperature [IPTS-68, deg C]
# name 3 = specc: Specific Conductance [uS/cm]
# name 4 = c0uS/cm: Conductivity [uS/cm]
# name 5 = prdE: Pressure, Strain Gauge [psi]
# name 6 = sbeox0Mg/L: Oxygen, SBE 43 [mg/l]
# name 7 = sbeox0PS: Oxygen, SBE 43 [% saturation]
# name 8 = oxsolMg/L: Oxygen Saturation, Garcia & Gordon [mg/l]
# name 9 = oxsatMg/L: Oxygen Saturation, Weiss [mg/l]
# name 10 = par: PAR/Irradiance, Biospherical/Licor
# name 11 = flCM: Fluorescence, Chelsea Mini Chl Con [ug/l]
# name 12 = bat: Beam Attenuation, Chelsea/Seatech [1/m]
# name 13 = xmiss: Beam Transmission, Chelsea/Seatech [%]
# name 14 = density00: Density [density, kg/m^3]
# name 15 = flag:  0.000e+00
# span 0 =     -0.665,     15.547                 
# span 1 =     9.7074,    31.2117                 
# span 2 =     9.7097,    31.2192                 
# span 3 =     -2.674,    101.138                 
# span 4 =  -3.001336, 102.607700                 
# span 5 =     -0.946,     22.113                 
# span 6 =     0.0747,    10.1658                 
# span 7 =      0.658,    122.267                 
# span 8 =    7.40353,   11.36302                 
# span 9 =    7.38380,   11.35194                 
# span 10 = 2.8987e-01, 1.3839e+03                
# span 11 =    -0.3612,    67.3886                
# span 12 =     1.2533,    13.9875                
# span 13 =     3.0292,    73.1014                
# span 14 =   995.2738,   999.8372                
# span 15 = 0.0000e+00, 0.0000e+00                
# interval = seconds: 0.25
# start_time = Jan 12 2024 14:50:06 [Instrument's time stamp, header]
# bad_flag = -9.990e-29
# <Sensors count="7" >
#   <sensor Channel="1" >
#     <!-- Count, Temperature -->
#     <TemperatureSensor SensorID="58" >
#       <SerialNumber>4268</SerialNumber>
#       <CalibrationDate>06-Dec-05</CalibrationDate>
#       <A0>1.16174900e-003</A0>
#       <A1>2.89177900e-004</A1>
#       <A2>-3.39356000e-006</A2>
#       <A3>2.88931900e-007</A3>
#       <Slope>1.00000000</Slope>
#       <Offset>0.0000</Offset>
#     </TemperatureSensor>
#   </sensor>
#   <sensor Channel="2" >
#     <!-- Frequency 0, Conductivity -->
#     <ConductivitySensor SensorID="3" >
#       <SerialNumber>4268</SerialNumber>
#       <CalibrationDate>06-Dec-05</CalibrationDate>
#       <UseG_J>1</UseG_J>
#       <!-- Cell const and series R are applicable only for wide range sensors. -->
#       <SeriesR>0.0000</SeriesR>
#       <CellConst>2000.0000</CellConst>
#       <ConductivityType>0</ConductivityType>
#       <Coefficients equation="0" >
#         <A>0.00000000e+000</A>
#         <B>0.00000000e+000</B>
#         <C>0.00000000e+000</C>
#         <D>0.00000000e+000</D>
#         <M>0.0</M>
#         <CPcor>-9.57000000e-008</CPcor>
#       </Coefficients>
#       <Coefficients equation="1" >
#         <G>-9.97781500e-001</G>
#         <H>1.52848600e-001</H>
#         <I>-4.69407800e-004</I>
#         <J>6.03980100e-005</J>
#         <CPcor>-9.57000000e-008</CPcor>
#         <CTcor>3.2500e-006</CTcor>
#         <!-- WBOTC not applicable unless ConductivityType = 1. -->
#         <WBOTC>0.00000000e+000</WBOTC>
#       </Coefficients>
#       <Slope>1.00000000</Slope>
#       <Offset>0.00000</Offset>
#     </ConductivitySensor>
#   </sensor>
#   <sensor Channel="3" >
#     <!-- Count, Pressure, Strain Gauge -->
#     <PressureSensor SensorID="46" >
#       <SerialNumber>4268</SerialNumber>
#       <CalibrationDate>22-Nov-05</CalibrationDate>
#       <PA0>1.16634000e-001</PA0>
#       <PA1>1.56200800e-003</PA1>
#       <PA2>7.52185600e-012</PA2>
#       <PTEMPA0>-7.18702600e+001</PTEMPA0>
#       <PTEMPA1>4.81936000e+001</PTEMPA1>
#       <PTEMPA2>-2.28784500e-002</PTEMPA2>
#       <PTCA0>5.24479300e+005</PTCA0>
#       <PTCA1>6.70547700e+000</PTCA1>
#       <PTCA2>-1.52562300e-001</PTCA2>
#       <PTCB0>2.48532500e+001</PTCB0>
#       <PTCB1>-3.50000000e-004</PTCB1>
#       <PTCB2>0.00000000e+000</PTCB2>
#       <Offset>0.000000</Offset>
#     </PressureSensor>
#   </sensor>
#   <sensor Channel="4" >
#     <!-- A/D voltage 0, Oxygen, SBE 43 -->
#     <OxygenSensor SensorID="38" >
#       <SerialNumber>0268</SerialNumber>
#       <CalibrationDate>29-Feb-20</CalibrationDate>
#       <Use2007Equation>1</Use2007Equation>
#       <CalibrationCoefficients equation="0" >
#         <!-- Coefficients for Owens-Millard equation. -->
#         <Boc>0.0000</Boc>
#         <Soc>3.1260e-001</Soc>
#         <offset>-0.4337</offset>
#         <Pcor>1.35e-004</Pcor>
#         <Tcor>0.0023</Tcor>
#         <Tau>0.0</Tau>
#       </CalibrationCoefficients>
#       <CalibrationCoefficients equation="1" >
#         <!-- Coefficients for Sea-Bird equation - SBE calibration in 2007 and later. -->
#         <Soc>5.4910e-001</Soc>
#         <offset>-0.4386</offset>
#         <A>-3.6337e-003</A>
#         <B> 1.0518e-004</B>
#         <C>-1.0368e-006</C>
#         <D0> 2.5826e+000</D0>
#         <D1> 1.92634e-004</D1>
#         <D2>-4.64803e-002</D2>
#         <E> 3.6000e-002</E>
#         <Tau20> 1.2800</Tau20>
#         <H1>-3.3000e-002</H1>
#         <H2> 5.0000e+003</H2>
#         <H3> 1.4500e+003</H3>
#       </CalibrationCoefficients>
#     </OxygenSensor>
#   </sensor>
#   <sensor Channel="5" >
#     <!-- A/D voltage 1, Transmissometer, Chelsea/Seatech -->
#     <TransChelseaSeatechWetlabCStarSensor SensorID="59" >
#       <SerialNumber>CST-612PR</SerialNumber>
#       <CalibrationDate>6/27/02</CalibrationDate>
#       <M>19.4066</M>
#       <B>-1.1062</B>
#       <PathLength>0.250</PathLength>
#     </TransChelseaSeatechWetlabCStarSensor>
#   </sensor>
#   <sensor Channel="6" >
#     <!-- A/D voltage 2, Fluorometer, Chelsea Minitracka -->
#     <FluoroChelseaMinitrackaSensor SensorID="6" >
#       <SerialNumber>175011</SerialNumber>
#       <CalibrationDate>26-Mar-97</CalibrationDate>
#       <Vacetone>0.013</Vacetone>
#       <Vacetone100>3.612</Vacetone100>
#       <Offset>0.000</Offset>
#     </FluoroChelseaMinitrackaSensor>
#   </sensor>
#   <sensor Channel="7" >
#     <!-- A/D voltage 3, PAR/Irradiance, Biospherical/Licor -->
#     <PAR_BiosphericalLicorChelseaSensor SensorID="42" >
#       <SerialNumber>6404</SerialNumber>
#       <CalibrationDate>29-Nov-05</CalibrationDate>
#       <M>-0.76668700</M>
#       <B>-3.43363000</B>
#       <CalibrationConstant>3.42000000</CalibrationConstant>
#       <Multiplier>1.00000000</Multiplier>
#       <Offset>0.00000000</Offset>
#     </PAR_BiosphericalLicorChelseaSensor>
#   </sensor>
# </Sensors>
# datcnv_date = Jun 04 2024 15:04:07, 7.26.7.129 [datcnv_vars = 15]
# datcnv_in = C:\Users\ir64\OneDrive - The University of Waikato\Documents\Sampling\CTD casts\2024.01 CTD casts\2024.01 HEX files\15 January 2023 upload121.hex C:\Users\ir64\OneDrive - The University of Waikato\Documents\Sampling\CTD Documents\New 4268 & 6165 con files\20200723_SBE19_4268.xmlcon
# datcnv_skipover = 0
# datcnv_ox_hysteresis_correction = yes
# datcnv_ox_tau_correction = yes
# file_type = ascii
*END*
     -0.661    31.1502    31.1577     -2.618  -2.940574     -0.940     7.0402     94.993    7.41128    7.39152 6.5656e+01     0.7157     1.3163    71.9584   995.2930  0.000e+00
     -0.663    31.1583    31.1657     -2.591  -2.910194     -0.943     7.0403     95.007    7.41027    7.39051 6.8264e+01    -0.1132     1.3554    71.2595   995.2905  0.000e+00
     -0.663    31.1598    31.1672     -2.591  -2.910194     -0.943     7.0399     95.004    7.41008    7.39032 7.9263e+01    -0.1195     1.3360    71.6045   995.2900  0.000e+00
     -0.664    31.1470    31.1545     -2.591  -2.910194     -0.944     7.0425     95.019    7.41169    7.39193 8.2430e+01     1.0061     1.2974    72.3004   995.2940  0.000e+00
     -0.665    31.1288    31.1362     -2.592  -2.910194     -0.946     7.0442     95.012    7.41399    7.39422 8.2923e+01     0.6097     1.2668    72.8542   995.2997  0.000e+00
     -0.663    31.1154    31.1228     -2.593  -2.910194     -0.943     7.0454     95.007    7.41568    7.39591 6.8436e+01     0.2281     1.2533    73.1014   995.3039  0.000e+00
     -0.665    31.1257    31.1332     -2.592  -2.910194     -0.946     7.0451     95.020    7.41438    7.39461 6.7100e+01    -0.1768     1.2537    73.0940   995.3007  0.000e+00
     -0.664    31.1415    31.1490     -2.591  -2.910194     -0.944     7.0425     95.010    7.41238    7.39262 6.8766e+01    -0.3612     1.2587    73.0022   995.2957  0.000e+00
     -0.663    31.1440    31.1515     -2.591  -2.910194     -0.943     7.0417     95.003    7.41206    7.39230 1.5408e+02    -0.3612     1.2640    72.9060   995.2949  0.000e+00
     -0.663    31.1230    31.1305     -2.592  -2.910194     -0.943     7.0440     95.000    7.41471    7.39494 8.2355e+01    -0.3612     1.2666    72.8586   995.3015  0.000e+00
     -0.664    31.1111    31.1186     -2.593  -2.910194     -0.944     7.0468     95.019    7.41622    7.39644 8.9068e+01    -0.3612     1.2657    72.8749   995.3052  0.000e+00
     -0.662    31.1071    31.1146     -2.593  -2.910194     -0.941     7.0491     95.044    7.41673    7.39695 8.9416e+01    -0.3612     1.2645    72.8971   995.3065  0.000e+00
     -0.665    31.1095    31.1170     -2.593  -2.910194     -0.946     7.0468     95.016    7.41642    7.39664 3.9352e+02    -0.3612     1.2624    72.9356   995.3057  0.000e+00
     -0.665    31.1186    31.1260     -2.674  -3.001336     -0.946     7.0456     95.014    7.41528    7.39550 4.4873e+02    -0.3337     1.2613    72.9548   995.3029  0.000e+00
     -0.663    31.1327    31.1401     -2.592  -2.910194     -0.943     7.0444     95.021    7.41350    7.39373 4.2365e+02    21.8023     1.2608    72.9637   995.2985  0.000e+00
     -0.665    31.1615    31.1690     -2.591  -2.910194     -0.946     7.0396     95.003    7.40986    7.39011 5.2355e+02    39.2533     1.2602    72.9756   995.2895  0.000e+00
     -0.663    31.1970    31.2045     -2.589  -2.910193     -0.943     7.0350     94.999    7.40538    7.38565 1.9912e+02    52.8843     1.2598    72.9830   995.2784  0.000e+00
     -0.662    31.2117    31.2192     -2.669  -3.001335     -0.941     7.0326     94.990    7.40353    7.38380 8.7491e+02    63.4837     1.2592    72.9933   995.2738  0.000e+00
     -0.663    31.1986    31.2061     -2.670  -3.001335     -0.943     7.0338     94.985    7.40518    7.38545 9.9493e+02    67.3886     1.2590    72.9963   995.2779  0.000e+00
     -0.664    31.1982    31.2057     -2.670  -3.001335     -0.944     7.0317     94.955    7.40522    7.38549 1.0937e+03    49.7956     1.2581    73.0141   995.2780  0.000e+00
     -0.590    31.1719    31.1794     42.622  47.890024     -0.840     7.0347     94.968    7.40740    7.38766 1.0352e+03    37.3348     1.4553    69.5005   995.3077  0.000e+00
     -0.475    30.0144    30.0216     77.013  84.747788     -0.675     7.1775     95.000    7.55526    7.53503 1.0822e+03    29.5442     8.3757    12.3201   995.6745  0.000e+00
     -0.408    28.3894    28.3963     90.848  97.018658     -0.580     7.3858     95.031    7.77201    7.75157 1.4534e+02    24.5942    11.6328     5.4574   996.1584  0.000e+00
     -0.341    27.3776    27.3842     94.877  99.400679     -0.485     7.5226     95.073    7.91251    7.89218 7.5246e+01     8.8709     7.3658    15.8588   996.4465  0.000e+00
     -0.261    26.7296    26.7360     95.741  99.064991     -0.371     7.6230     95.229    8.00487    7.98468 7.1252e+01     2.2272     5.6588    24.2999   996.6257  0.000e+00
     -0.205    26.2419    26.2482     95.937  98.332296     -0.291     7.7094     95.465    8.07563    8.05559 6.9272e+01    -0.3612     2.0613    59.7314   996.7578  0.000e+00
     -0.156    25.8845    25.8907     96.281  97.996529     -0.222     7.8047     96.020    8.12818    8.10827 6.5071e+01     2.6172     2.6598    51.4295   996.8533  0.000e+00
     -0.114    25.6494    25.6555     96.879  98.149277     -0.163     7.8892     96.645    8.16308    8.14326 4.6966e+01    10.8933     3.0235    46.9594   996.9156  0.000e+00
     -0.073    25.5025    25.5086     97.433  98.424139     -0.103     7.9653     97.316    8.18500    8.16525 6.1844e+01     6.4967     1.9636    61.2075   996.9545  0.000e+00
     -0.032    25.4274    25.4335     99.122  99.981517     -0.046     8.0338     98.019    8.19622    8.17650 6.7070e+01     8.2541     1.7193    65.0616   996.9748  0.000e+00
     -0.003    25.4026    25.4087     99.656 100.470131     -0.005     8.0946     98.715    8.19994    8.18024 4.7912e+01     5.0509     1.6742    65.8004   996.9815  0.000e+00
      0.023    25.4096    25.4157    100.611 101.447378      0.033     8.1451     99.344    8.19887    8.17916 5.1794e+01     2.9013     1.6534    66.1425   996.9802  0.000e+00
      0.032    25.5543    25.5604    101.138 102.271919      0.045     8.1581     99.767    8.17718    8.15741 4.5661e+01     4.4700     1.6644    65.9618   996.9426  0.000e+00
      0.029    25.7365    25.7427    100.474 101.966452      0.042     8.1554    100.066    8.15003    8.13018 4.7857e+01    -0.3612     1.6720    65.8360   996.8946  0.000e+00
      0.026    25.9018    25.9080     99.488 101.294517      0.037     8.1394    100.171    8.12556    8.10565 5.2800e+01     0.9234     1.6756    65.7768   996.8506  0.000e+00
      0.017    26.0175    26.0237     98.783 100.805854      0.025     8.1146    100.075    8.10851    8.08855 4.4179e+01     3.8934     1.6672    65.9145   996.8196  0.000e+00
      0.020    26.0141    26.0203     97.922  99.920252      0.028     8.1012     99.904    8.10902    8.08907 5.4684e+01    -0.3612     1.6621    65.9989   996.8202  0.000e+00
      0.032    25.8855    25.8917     97.510  99.248483      0.045     8.0947     99.590    8.12801    8.10811 4.2374e+01    -0.3612     1.6612    66.0137   996.8543  0.000e+00
      0.039    25.7815    25.7877     98.341  99.889790      0.056     8.0960     99.418    8.14340    8.12353 4.8121e+01    -0.3612     1.6729    65.8212   996.8821  0.000e+00
      0.037    25.7274    25.7336     98.777 100.225721      0.053     8.0877     99.218    8.15143    8.13158 4.4586e+01    -0.3612     1.6611    66.0166   996.8964  0.000e+00
      0.038    25.6732    25.6794     98.551  99.889825      0.054     8.0732     98.943    8.15949    8.13967 4.2676e+01    -0.3612     1.6542    66.1291   996.9106  0.000e+00
      0.047    25.6363    25.6425     98.050  99.309636      0.067     8.0405     98.475    8.16500    8.14519 4.5944e+01    -0.3612     1.6574    66.0773   996.9202  0.000e+00
      0.090    25.6041    25.6102     97.298  98.485178      0.128     7.6017     93.046    8.16982    8.15003 6.4626e+01    -0.3612     1.6625    65.9929   996.9286  0.000e+00
      0.147    25.5855    25.5917     97.273  98.424115      0.209     7.2923     89.229    8.17259    8.15280 8.4845e+01    -0.3612     1.6736    65.8093   996.9337  0.000e+00
      0.199    25.5318    25.5379     97.377  98.424132      0.283     7.3879     90.310    8.18062    8.16086 9.4082e+01     5.8819     1.6686    65.8922   996.9480  0.000e+00
      0.224    25.4661    25.4722     97.413  98.332548      0.319     7.6562     93.477    8.19045    8.17072 5.2595e+01    10.3252     1.6694    65.8789   996.9652  0.000e+00
      0.225    25.4149    25.4210     97.421  98.240960      0.320     7.8085     95.247    8.19814    8.17843 5.1309e+01     9.1465     1.6730    65.8197   996.9786  0.000e+00
      0.198    25.3677    25.3738     97.360  98.088301      0.281     7.8380     95.524    8.20523    8.18553 1.2036e+02     4.0100     1.6529    66.1514   996.9907  0.000e+00
      0.167    25.3258    25.3319     96.865  97.508164      0.237     7.7135     93.935    8.21155    8.19188 4.4098e+01     3.4376     1.6555    66.1084   997.0013  0.000e+00
      0.164    25.2833    25.2894     96.704  97.263908      0.233     7.6168     92.684    8.21795    8.19830 6.0526e+01     2.1085     1.6608    66.0211   997.0122  0.000e+00
      0.178    25.2690    25.2751     97.066  97.599783      0.253     7.6118     92.599    8.22010    8.20045 4.6816e+01     2.2823     1.7225    65.0098   997.0161  0.000e+00
      0.210    25.2790    25.2851     97.684  98.241003      0.298     7.6081     92.572    8.21858    8.19893 4.5182e+01     2.0894     1.6875    65.5813   997.0139  0.000e+00
      0.252    25.2958    25.3019     98.076  98.668491      0.358     7.6031     92.540    8.21604    8.19638 4.9975e+01     1.4237     1.6879    65.5754   997.0099  0.000e+00
      0.311    25.3086    25.3147     97.627  98.240994      0.442     7.5947     92.460    8.21412    8.19445 4.3836e+01     1.5615     1.6889    65.5591   997.0066  0.000e+00
      0.360    25.3100    25.3161     98.413  99.034917      0.512     7.5978     92.500    8.21389    8.19422 5.5734e+01     1.1821     1.6920    65.5073   997.0068  0.000e+00
      0.380    25.3200    25.3261     99.000  99.645646      0.541     7.6186     92.770    8.21237    8.19270 4.4780e+01     2.2611     1.7019    65.3459   997.0045  0.000e+00
      0.378    25.3436    25.3497     99.045  99.737249      0.537     7.6126     92.736    8.20882    8.18914 6.0902e+01     1.7184     1.6854    65.6169   996.9983  0.000e+00
      0.357    25.4602    25.4664     98.634  99.553989      0.508     7.5288     91.912    8.19131    8.17158 4.7813e+01     1.5149     1.6912    65.5206   996.9678  0.000e+00
      0.331    25.5478    25.5540     97.587  98.668411      0.470     7.4161     90.682    8.17822    8.15845 4.7171e+01     0.8620     1.6932    65.4880   996.9444  0.000e+00
      0.320    25.5296    25.5357     96.867  97.905043      0.455     7.3200     89.476    8.18096    8.16119 4.4831e+01     1.8965     1.6899    65.5428   996.9489  0.000e+00
