* Sea-Bird SBE19plus Data File:
* FileName = C:\Users\instrument\Desktop\Iola Rosa. CTD Cast. July.23\Jsanuary 2024\Iola Rosa Jan122.24.hex
* Software Version 1.59
* Temperature SN =  4268
* Conductivity SN =  4268
* System UpLoad Time = Feb 01 2024 08:52:26
* ds
* SeacatPlus V 1.6  SERIAL NO. 4268    01 Feb 2024  08:53:08
* vbatt = 12.9, vlith =  8.0, ioper =  61.6 ma, ipump = 124.7 ma,
* iext01 =  38.8 ma
* iext23 =  51.3 ma
*
* status = not logging
* number of scans to average = 1
* samples = 191696, free = 249378, casts = 131
* mode = profile, minimum cond freq = 2567, pump delay = 60 sec
* autorun = no, ignore magnetic switch = no
* battery type = alkaline, battery cutoff =  7.3 volts
* pressure sensor = strain gauge, range = 508.0
* SBE 38 = no, Gas Tension Device = no
* Ext Volt 0 = yes, Ext Volt 1 = yes, Ext Volt 2 = yes, Ext Volt 3 = yes
* echo commands = yes
* output format = raw HEX

* S>
*
* SeacatPlus V 1.6  SERIAL NO. 4268    01 Feb 2024  08:54:03
* temperature:  06-dec-05
*     TA0 = 1.161749e-03
*     TA1 = 2.891779e-04
*     TA2 = -3.393560e-06
*     TA3 = 2.889319e-07
*     TOFFSET = 0.000000e+00
* conductivity:  06-dec-05
*     G = -9.977815e-01
*     H = 1.528486e-01
*     I = -4.694078e-04
*     J = 6.039801e-05
*     CF0 = 2.561972e+03
*     CPCOR = -9.570000e-08
*     CTCOR = 3.250000e-06
*     CSLOPE = 1.000000e+00
* pressure S/N = 1980, range = 508 psia:  22-nov-05
*     PA0 = 1.166340e-01
*     PA1 = 1.562008e-03
*     PA2 = 7.521856e-12
*     PTCA0 = 5.244793e+05
*     PTCA1 = 6.705477e+00
*     PTCA2 = -1.525623e-01
*     PTCB0 = 2.485325e+01
*     PTCB1 = -3.500000e-04
*     PTCB2 = 0.000000e+00
*     PTEMPA0 = -7.187026e+01
*     PTEMPA1 = 4.819360e+01
*     PTEMPA2 = -2.287845e-02
*     POFFSET = 0.000000e+00
* volt 0: offset = -4.716333e-02, slope = 1.249825e+00
* volt 1: offset = -4.705000e-02, slope = 1.250722e+00
* volt 2: offset = -4.720000e-02, slope = 1.250906e+00
* volt 3: offset = 0.000000e+00, slope = 1.000000e+00
*     EXTFREQSF = 1.000004e+00
* dh
* cast 122 25 Jan 2024 09:29:34 samples 173965 to 175119, avg = 1, stop = mag switch

* S>
# nquan = 16
# nvalues = 1022                                  
# units = specified
# name 0 = depFM: Depth [fresh water, m]
# name 1 = tv290C: Temperature [ITS-90, deg C]
# name 2 = tv268C: Temperature [IPTS-68, deg C]
# name 3 = specc: Specific Conductance [uS/cm]
# name 4 = c0uS/cm: Conductivity [uS/cm]
# name 5 = prdE: Pressure, Strain Gauge [psi]
# name 6 = sbeox0Mg/L: Oxygen, SBE 43 [mg/l]
# name 7 = sbeox0PS: Oxygen, SBE 43 [% saturation]
# name 8 = oxsolMg/L: Oxygen Saturation, Garcia & Gordon [mg/l]
# name 9 = oxsatMg/L: Oxygen Saturation, Weiss [mg/l]
# name 10 = par: PAR/Irradiance, Biospherical/Licor
# name 11 = flCM: Fluorescence, Chelsea Mini Chl Con [ug/l]
# name 12 = bat: Beam Attenuation, Chelsea/Seatech [1/m]
# name 13 = xmiss: Beam Transmission, Chelsea/Seatech [%]
# name 14 = density00: Density [density, kg/m^3]
# name 15 = flag:  0.000e+00
# span 0 =     -0.767,     15.942                 
# span 1 =     9.7537,    23.6095                 
# span 2 =     9.7560,    23.6151                 
# span 3 =     -2.321,    241.885                 
# span 4 =  -2.120353, 168.265322                 
# span 5 =     -1.091,     22.675                 
# span 6 =    -1.2884,     8.7112                 
# span 7 =    -12.202,    102.369                 
# span 8 =    8.47743,   11.35012                 
# span 9 =    8.45867,   11.33905                 
# span 10 = 1.1259e-01, 8.6812e+01                
# span 11 =    -0.3612,    41.0065                
# span 12 =     1.2987,     9.9321                
# span 13 =     8.3491,    72.2767                
# span 14 =   997.4084,   999.8853                
# span 15 = 0.0000e+00, 0.0000e+00                
# interval = seconds: 0.25
# start_time = Jan 25 2024 09:29:34 [Instrument's time stamp, header]
# bad_flag = -9.990e-29
# <Sensors count="7" >
#   <sensor Channel="1" >
#     <!-- Count, Temperature -->
#     <TemperatureSensor SensorID="58" >
#       <SerialNumber>4268</SerialNumber>
#       <CalibrationDate>06-Dec-05</CalibrationDate>
#       <A0>1.16174900e-003</A0>
#       <A1>2.89177900e-004</A1>
#       <A2>-3.39356000e-006</A2>
#       <A3>2.88931900e-007</A3>
#       <Slope>1.00000000</Slope>
#       <Offset>0.0000</Offset>
#     </TemperatureSensor>
#   </sensor>
#   <sensor Channel="2" >
#     <!-- Frequency 0, Conductivity -->
#     <ConductivitySensor SensorID="3" >
#       <SerialNumber>4268</SerialNumber>
#       <CalibrationDate>06-Dec-05</CalibrationDate>
#       <UseG_J>1</UseG_J>
#       <!-- Cell const and series R are applicable only for wide range sensors. -->
#       <SeriesR>0.0000</SeriesR>
#       <CellConst>2000.0000</CellConst>
#       <ConductivityType>0</ConductivityType>
#       <Coefficients equation="0" >
#         <A>0.00000000e+000</A>
#         <B>0.00000000e+000</B>
#         <C>0.00000000e+000</C>
#         <D>0.00000000e+000</D>
#         <M>0.0</M>
#         <CPcor>-9.57000000e-008</CPcor>
#       </Coefficients>
#       <Coefficients equation="1" >
#         <G>-9.97781500e-001</G>
#         <H>1.52848600e-001</H>
#         <I>-4.69407800e-004</I>
#         <J>6.03980100e-005</J>
#         <CPcor>-9.57000000e-008</CPcor>
#         <CTcor>3.2500e-006</CTcor>
#         <!-- WBOTC not applicable unless ConductivityType = 1. -->
#         <WBOTC>0.00000000e+000</WBOTC>
#       </Coefficients>
#       <Slope>1.00000000</Slope>
#       <Offset>0.00000</Offset>
#     </ConductivitySensor>
#   </sensor>
#   <sensor Channel="3" >
#     <!-- Count, Pressure, Strain Gauge -->
#     <PressureSensor SensorID="46" >
#       <SerialNumber>4268</SerialNumber>
#       <CalibrationDate>22-Nov-05</CalibrationDate>
#       <PA0>1.16634000e-001</PA0>
#       <PA1>1.56200800e-003</PA1>
#       <PA2>7.52185600e-012</PA2>
#       <PTEMPA0>-7.18702600e+001</PTEMPA0>
#       <PTEMPA1>4.81936000e+001</PTEMPA1>
#       <PTEMPA2>-2.28784500e-002</PTEMPA2>
#       <PTCA0>5.24479300e+005</PTCA0>
#       <PTCA1>6.70547700e+000</PTCA1>
#       <PTCA2>-1.52562300e-001</PTCA2>
#       <PTCB0>2.48532500e+001</PTCB0>
#       <PTCB1>-3.50000000e-004</PTCB1>
#       <PTCB2>0.00000000e+000</PTCB2>
#       <Offset>0.000000</Offset>
#     </PressureSensor>
#   </sensor>
#   <sensor Channel="4" >
#     <!-- A/D voltage 0, Oxygen, SBE 43 -->
#     <OxygenSensor SensorID="38" >
#       <SerialNumber>0268</SerialNumber>
#       <CalibrationDate>29-Feb-20</CalibrationDate>
#       <Use2007Equation>1</Use2007Equation>
#       <CalibrationCoefficients equation="0" >
#         <!-- Coefficients for Owens-Millard equation. -->
#         <Boc>0.0000</Boc>
#         <Soc>3.1260e-001</Soc>
#         <offset>-0.4337</offset>
#         <Pcor>1.35e-004</Pcor>
#         <Tcor>0.0023</Tcor>
#         <Tau>0.0</Tau>
#       </CalibrationCoefficients>
#       <CalibrationCoefficients equation="1" >
#         <!-- Coefficients for Sea-Bird equation - SBE calibration in 2007 and later. -->
#         <Soc>5.4910e-001</Soc>
#         <offset>-0.4386</offset>
#         <A>-3.6337e-003</A>
#         <B> 1.0518e-004</B>
#         <C>-1.0368e-006</C>
#         <D0> 2.5826e+000</D0>
#         <D1> 1.92634e-004</D1>
#         <D2>-4.64803e-002</D2>
#         <E> 3.6000e-002</E>
#         <Tau20> 1.2800</Tau20>
#         <H1>-3.3000e-002</H1>
#         <H2> 5.0000e+003</H2>
#         <H3> 1.4500e+003</H3>
#       </CalibrationCoefficients>
#     </OxygenSensor>
#   </sensor>
#   <sensor Channel="5" >
#     <!-- A/D voltage 1, Transmissometer, Chelsea/Seatech -->
#     <TransChelseaSeatechWetlabCStarSensor SensorID="59" >
#       <SerialNumber>CST-612PR</SerialNumber>
#       <CalibrationDate>6/27/02</CalibrationDate>
#       <M>19.4066</M>
#       <B>-1.1062</B>
#       <PathLength>0.250</PathLength>
#     </TransChelseaSeatechWetlabCStarSensor>
#   </sensor>
#   <sensor Channel="6" >
#     <!-- A/D voltage 2, Fluorometer, Chelsea Minitracka -->
#     <FluoroChelseaMinitrackaSensor SensorID="6" >
#       <SerialNumber>175011</SerialNumber>
#       <CalibrationDate>26-Mar-97</CalibrationDate>
#       <Vacetone>0.013</Vacetone>
#       <Vacetone100>3.612</Vacetone100>
#       <Offset>0.000</Offset>
#     </FluoroChelseaMinitrackaSensor>
#   </sensor>
#   <sensor Channel="7" >
#     <!-- A/D voltage 3, PAR/Irradiance, Biospherical/Licor -->
#     <PAR_BiosphericalLicorChelseaSensor SensorID="42" >
#       <SerialNumber>6404</SerialNumber>
#       <CalibrationDate>29-Nov-05</CalibrationDate>
#       <M>-0.76668700</M>
#       <B>-3.43363000</B>
#       <CalibrationConstant>3.42000000</CalibrationConstant>
#       <Multiplier>1.00000000</Multiplier>
#       <Offset>0.00000000</Offset>
#     </PAR_BiosphericalLicorChelseaSensor>
#   </sensor>
# </Sensors>
# datcnv_date = Jun 04 2024 15:04:07, 7.26.7.129 [datcnv_vars = 15]
# datcnv_in = C:\Users\ir64\OneDrive - The University of Waikato\Documents\Sampling\CTD casts\2024.01 CTD casts\2024.01 HEX files\Iola Rosa Jan122.24.hex C:\Users\ir64\OneDrive - The University of Waikato\Documents\Sampling\CTD Documents\New 4268 & 6165 con files\20200723_SBE19_4268.xmlcon
# datcnv_skipover = 0
# datcnv_ox_hysteresis_correction = yes
# datcnv_ox_tau_correction = yes
# file_type = ascii
*END*
     -0.764    20.6849    20.6899     -2.254  -2.059587     -1.086     8.5202     94.984    8.97012    8.95336 1.3918e+01     0.2345     1.3788    70.8435   998.0581  0.000e+00
     -0.762    20.6855    20.6904     -2.221  -2.029204     -1.084     8.5230     95.016    8.97002    8.95326 1.4809e+01     0.1772     1.4040    70.3978   998.0580  0.000e+00
     -0.765    20.6850    20.6899     -2.121  -1.938055     -1.088     8.5255     95.044    8.97011    8.95335 2.4517e+01    -0.1238     1.3761    70.8908   998.0581  0.000e+00
     -0.766    20.6828    20.6878     -2.054  -1.877288     -1.089     8.5257     95.041    8.97049    8.95373 3.4915e+01     1.0316     1.3350    71.6238   998.0585  0.000e+00
     -0.764    20.6807    20.6856     -2.221  -2.029204     -1.086     8.5263     95.044    8.97086    8.95411 4.0606e+01     0.7072     1.3080    72.1079   998.0590  0.000e+00
     -0.766    20.6809    20.6859     -2.121  -1.938055     -1.089     8.5257     95.039    8.97082    8.95406 6.2499e+01     0.5249     1.2987    72.2767   998.0589  0.000e+00
     -0.766    20.6813    20.6862     -2.121  -1.938055     -1.089     8.5278     95.062    8.97076    8.95400 7.4150e+01     0.3935     1.3012    72.2308   998.0589  0.000e+00
     -0.767    20.6808    20.6858     -2.121  -1.938055     -1.091     8.5268     95.050    8.97083    8.95408 8.3955e+01     0.2854     1.3089    72.0916   998.0590  0.000e+00
     -0.765    20.6803    20.6852     -2.321  -2.120353     -1.088     8.5267     95.049    8.97093    8.95418 8.6812e+01     0.2599     1.3144    71.9939   998.0591  0.000e+00
     -0.738    20.6802    20.6852      2.934   2.680722     -1.050     8.5273     95.061    8.97039    8.95364 7.8702e+01     0.0755     1.3158    71.9687   998.0673  0.000e+00
     -0.635    20.9818    20.9868     69.332  63.766993     -0.903     8.4672     94.965    8.91611    8.89913 7.6322e+01    -0.3082     3.2879    43.9567   998.0233  0.000e+00
     -0.511    21.8536    21.8589     99.029  92.807551     -0.727     8.3226     94.946    8.76566    8.74805 8.2563e+01     3.3783     9.9321     8.3491   997.8413  0.000e+00
     -0.381    22.4986    22.5040    104.786  99.554940     -0.542     8.2163     94.902    8.65762    8.63956 7.6410e+01     4.8728     9.3514     9.6535   997.6964  0.000e+00
     -0.256    22.9338    22.9393    101.095  96.928780     -0.364     8.1470     94.885    8.58623    8.56789 4.1528e+01     5.1526     9.0816    10.3272   997.5938  0.000e+00
     -0.167    23.1990    23.2046     99.272  95.707409     -0.237     8.1103     94.933    8.54322    8.52471 4.8966e+01     5.1654     8.6964    11.3711   997.5306  0.000e+00
     -0.129    23.3472    23.3528     98.368  95.127278     -0.183     8.1189     95.299    8.51936    8.50076 4.5130e+01     5.2290     5.7118    23.9801   997.4950  0.000e+00
     -0.122    23.4212    23.4268     98.028  94.944074     -0.173     8.1618     95.937    8.50749    8.48884 4.7671e+01     5.2926     3.1504    45.4936   997.4771  0.000e+00
     -0.114    23.4418    23.4474     97.987  94.944068     -0.162     8.2203     96.662    8.50418    8.48552 4.7496e+01     5.3392     2.6151    52.0084   997.4721  0.000e+00
     -0.089    23.4341    23.4397     98.538  95.463088     -0.127     8.2840     97.397    8.50540    8.48675 4.7540e+01     5.4515     2.2153    57.4749   997.4743  0.000e+00
     -0.061    23.4228    23.4284     99.664  96.531701     -0.087     8.3408     98.044    8.50719    8.48854 5.2752e+01     5.3943     2.1493    58.4314   997.4775  0.000e+00
     -0.059    23.3997    23.4053    100.122  96.928635     -0.084     8.4004     98.702    8.51089    8.49225 4.9157e+01     5.4812     2.1266    58.7630   997.4832  0.000e+00
     -0.060    23.3167    23.3223    100.452  97.081327     -0.086     8.4517     99.149    8.52421    8.50563 5.4860e+01     5.5554     2.1157    58.9244   997.5033  0.000e+00
     -0.056    23.2060    23.2116    100.018  96.440172     -0.080     8.4983     99.487    8.54207    8.52355 4.6325e+01     5.5893     2.0907    59.2931   997.5297  0.000e+00
     -0.042    23.1366    23.1421     99.972  96.257000     -0.059     8.5194     99.604    8.55331    8.53484 5.2151e+01     5.6763     2.1044    59.0902   997.5463  0.000e+00
     -0.023    23.1119    23.1174     99.960  96.195944     -0.033     8.5267     99.643    8.55731    8.53885 4.5306e+01     5.7738     2.0849    59.3790   997.5522  0.000e+00
     -0.016    23.1165    23.1220     99.696  95.951688     -0.023     8.5271     99.655    8.55656    8.53810 4.9667e+01     5.6932     2.0737    59.5463   997.5511  0.000e+00
     -0.008    23.1614    23.1669     99.064  95.432643     -0.011     8.5042     99.472    8.54931    8.53083 4.4209e+01     5.7356     2.1124    58.9718   997.5402  0.000e+00
      0.003    23.2202    23.2258     98.532  95.035728      0.005     8.4995     99.528    8.53982    8.52129 4.6859e+01     5.7738     2.0824    59.4160   997.5260  0.000e+00
      0.017    23.2825    23.2880     98.247  94.883058      0.023     8.4871     99.499    8.52978    8.51122 4.8944e+01     5.7526     2.0924    59.2679   997.5111  0.000e+00
      0.015    23.3358    23.3414     97.949  94.699862      0.022     8.5276    100.075    8.52120    8.50261 4.5609e+01     5.7632     2.0865    59.3553   997.4982  0.000e+00
      0.014    23.3782    23.3838     97.611  94.455613      0.020     8.6631    101.746    8.51439    8.49577 4.8375e+01     5.7314     2.0784    59.4752   997.4879  0.000e+00
      0.014    23.4081    23.4137     97.456  94.364016      0.020     8.7112    102.369    8.50960    8.49096 4.5535e+01     5.6911     2.0725    59.5640   997.4806  0.000e+00
      0.015    23.4290    23.4346     97.256  94.211364      0.022     8.6012    101.116    8.50625    8.48760 4.7193e+01     5.7823     2.0561    59.8083   997.4755  0.000e+00
      0.015    23.4416    23.4473     97.325  94.302947      0.022     8.3762     98.494    8.50422    8.48556 4.6134e+01     5.7250     2.0501    59.8987   997.4725  0.000e+00
      0.017    23.4509    23.4565     97.212  94.211357      0.023     8.0949     95.203    8.50274    8.48407 4.5089e+01     5.8119     2.0566    59.8009   997.4702  0.000e+00
      0.024    23.4589    23.4645     97.196  94.211355      0.034     7.7982     91.728    8.50146    8.48279 4.5048e+01     5.8586     2.0484    59.9238   997.4683  0.000e+00
      0.043    23.4646    23.4702     97.185  94.211353      0.061     7.4936     88.154    8.50055    8.48188 4.5306e+01     5.9179     2.0617    59.7239   997.4670  0.000e+00
      0.059    23.4685    23.4741     97.177  94.211352      0.084     7.2091     84.813    8.49993    8.48125 4.3786e+01     6.0451     2.0446    59.9801   997.4662  0.000e+00
      0.065    23.4702    23.4759     97.520  94.547173      0.092     6.9899     82.238    8.49964    8.48096 4.4852e+01     6.1320     2.0563    59.8054   997.4659  0.000e+00
      0.059    23.4654    23.4711     97.876  94.883002      0.084     6.8636     80.745    8.50040    8.48172 4.4321e+01     6.0494     2.0482    59.9268   997.4671  0.000e+00
      0.045    23.4615    23.4671     97.097  94.119768      0.064     6.8037     80.033    8.50105    8.48238 4.7388e+01     5.9540     2.0596    59.7565   997.4678  0.000e+00
      0.038    23.4665    23.4721     97.086  94.119766      0.055     6.7807     79.770    8.50024    8.48157 4.6325e+01     5.8586     2.0647    59.6795   997.4665  0.000e+00
      0.040    23.4690    23.4746     97.019  94.058708      0.056     6.7684     79.630    8.49985    8.48117 4.6687e+01     5.7929     2.0751    59.5255   997.4659  0.000e+00
      0.049    23.4681    23.4737     97.083  94.119766      0.070     6.7593     79.522    8.49999    8.48131 4.5535e+01     5.7759     2.1006    59.1465   997.4662  0.000e+00
      0.057    23.4600    23.4657     97.351  94.364000      0.081     6.7499     79.398    8.50127    8.48260 4.6580e+01     5.7717     2.0812    59.4337   997.4683  0.000e+00
      0.062    23.4498    23.4554     97.120  94.119771      0.088     6.7342     79.199    8.50292    8.48426 4.6495e+01     5.7907     2.0592    59.7624   997.4707  0.000e+00
      0.059    23.4482    23.4538     96.966  93.967128      0.084     6.6980     78.771    8.50318    8.48452 4.6039e+01     5.7526     2.0500    59.9001   997.4710  0.000e+00
      0.054    23.4538    23.4594     96.955  93.967127      0.077     6.6504     78.219    8.50229    8.48362 4.6612e+01     5.7505     2.0534    59.8483   997.4696  0.000e+00
      0.044    23.4577    23.4633     95.592  92.654438      0.063     6.5926     77.545    8.50169    8.48302 4.7518e+01     5.7420     2.0496    59.9061   997.4682  0.000e+00
      0.041    23.4589    23.4645     95.495  92.562858      0.058     6.5269     76.774    8.50150    8.48283 4.4924e+01     5.7907     2.0424    60.0142   997.4678  0.000e+00
      0.055    23.4590    23.4646     97.039  94.058711      0.078     6.4644     76.039    8.50145    8.48278 4.6570e+01     5.7356     2.0538    59.8424   997.4684  0.000e+00
      0.080    23.4568    23.4624     97.043  94.058712      0.114     6.4034     75.318    8.50180    8.48313 4.4108e+01     5.8522     2.0472    59.9416   997.4690  0.000e+00
      0.104    23.4492    23.4549     97.562  94.547180      0.148     6.3569     74.761    8.50300    8.48433 4.3586e+01     5.8183     2.0497    59.9046   997.4711  0.000e+00
      0.110    23.4372    23.4428     97.933  94.883011      0.156     6.3240     74.357    8.50492    8.48626 4.4873e+01     5.8988     2.0472    59.9416   997.4742  0.000e+00
      0.107    23.4342    23.4398     97.750  94.699833      0.152     6.3062     74.144    8.50541    8.48675 4.4790e+01     6.0303     2.0317    60.1741   997.4748  0.000e+00
      0.108    23.3998    23.4054     97.315  94.211374      0.153     6.3485     74.593    8.51093    8.49230 4.4842e+01     6.0451     2.0378    60.0823   997.4830  0.000e+00
      0.112    23.3779    23.3835     97.201  94.058736      0.159     6.3724     74.842    8.51445    8.49583 4.3786e+01     5.9921     2.0387    60.0689   997.4882  0.000e+00
      0.121    23.3874    23.3930     97.087  93.967147      0.172     6.4319     75.555    8.51292    8.49430 4.4616e+01     5.9879     2.0468    59.9475   997.4860  0.000e+00
      0.124    23.3984    23.4040     96.971  93.875559      0.177     6.4933     76.292    8.51117    8.49253 4.3237e+01     5.9879     2.0487    59.9194   997.4833  0.000e+00
      0.123    23.4009    23.4066     96.966  93.875558      0.175     6.5468     76.924    8.51076    8.49212 4.3526e+01     6.0133     2.0590    59.7654   997.4827  0.000e+00
