* Sea-Bird SBE19plus Data File:
* FileName = C:\Users\instrument\Desktop\Iola Rosa. CTD Cast. July.23\Jsanuary 2024\Iola Rosa Jan124.24.hex
* Software Version 1.59
* Temperature SN =  4268
* Conductivity SN =  4268
* System UpLoad Time = Feb 01 2024 08:54:22
* ds
* SeacatPlus V 1.6  SERIAL NO. 4268    01 Feb 2024  08:53:08
* vbatt = 12.9, vlith =  8.0, ioper =  61.6 ma, ipump = 124.7 ma,
* iext01 =  38.8 ma
* iext23 =  51.3 ma
*
* status = not logging
* number of scans to average = 1
* samples = 191696, free = 249378, casts = 131
* mode = profile, minimum cond freq = 2567, pump delay = 60 sec
* autorun = no, ignore magnetic switch = no
* battery type = alkaline, battery cutoff =  7.3 volts
* pressure sensor = strain gauge, range = 508.0
* SBE 38 = no, Gas Tension Device = no
* Ext Volt 0 = yes, Ext Volt 1 = yes, Ext Volt 2 = yes, Ext Volt 3 = yes
* echo commands = yes
* output format = raw HEX

* S>
*
* SeacatPlus V 1.6  SERIAL NO. 4268    01 Feb 2024  08:54:03
* temperature:  06-dec-05
*     TA0 = 1.161749e-03
*     TA1 = 2.891779e-04
*     TA2 = -3.393560e-06
*     TA3 = 2.889319e-07
*     TOFFSET = 0.000000e+00
* conductivity:  06-dec-05
*     G = -9.977815e-01
*     H = 1.528486e-01
*     I = -4.694078e-04
*     J = 6.039801e-05
*     CF0 = 2.561972e+03
*     CPCOR = -9.570000e-08
*     CTCOR = 3.250000e-06
*     CSLOPE = 1.000000e+00
* pressure S/N = 1980, range = 508 psia:  22-nov-05
*     PA0 = 1.166340e-01
*     PA1 = 1.562008e-03
*     PA2 = 7.521856e-12
*     PTCA0 = 5.244793e+05
*     PTCA1 = 6.705477e+00
*     PTCA2 = -1.525623e-01
*     PTCB0 = 2.485325e+01
*     PTCB1 = -3.500000e-04
*     PTCB2 = 0.000000e+00
*     PTEMPA0 = -7.187026e+01
*     PTEMPA1 = 4.819360e+01
*     PTEMPA2 = -2.287845e-02
*     POFFSET = 0.000000e+00
* volt 0: offset = -4.716333e-02, slope = 1.249825e+00
* volt 1: offset = -4.705000e-02, slope = 1.250722e+00
* volt 2: offset = -4.720000e-02, slope = 1.250906e+00
* volt 3: offset = 0.000000e+00, slope = 1.000000e+00
*     EXTFREQSF = 1.000004e+00
* dh
* cast 124 25 Jan 2024 13:55:48 samples 176176 to 177049, avg = 1, stop = mag switch

* S>
# nquan = 16
# nvalues = 700                                   
# units = specified
# name 0 = depFM: Depth [fresh water, m]
# name 1 = tv290C: Temperature [ITS-90, deg C]
# name 2 = tv268C: Temperature [IPTS-68, deg C]
# name 3 = specc: Specific Conductance [uS/cm]
# name 4 = c0uS/cm: Conductivity [uS/cm]
# name 5 = prdE: Pressure, Strain Gauge [psi]
# name 6 = sbeox0Mg/L: Oxygen, SBE 43 [mg/l]
# name 7 = sbeox0PS: Oxygen, SBE 43 [% saturation]
# name 8 = oxsolMg/L: Oxygen Saturation, Garcia & Gordon [mg/l]
# name 9 = oxsatMg/L: Oxygen Saturation, Weiss [mg/l]
# name 10 = par: PAR/Irradiance, Biospherical/Licor
# name 11 = flCM: Fluorescence, Chelsea Mini Chl Con [ug/l]
# name 12 = bat: Beam Attenuation, Chelsea/Seatech [1/m]
# name 13 = xmiss: Beam Transmission, Chelsea/Seatech [%]
# name 14 = density00: Density [density, kg/m^3]
# name 15 = flag:  0.000e+00
# span 0 =     -0.604,     15.906                 
# span 1 =     9.7491,    23.9700                 
# span 2 =     9.7514,    23.9758                 
# span 3 =     91.495,    240.118                 
# span 4 =  68.189927, 167.039663                 
# span 5 =     -0.859,     22.624                 
# span 6 =    -0.9533,     9.3450                 
# span 7 =     -9.199,    110.893                 
# span 8 =    8.42032,   11.35171                 
# span 9 =    8.40134,   11.34064                 
# span 10 = 1.0552e-01, 2.7174e+02                
# span 11 =     1.4873,    57.1686                
# span 12 =     1.8115,     4.8819                
# span 13 =    29.5088,    63.5795                
# span 14 =   997.3413,   999.8842                
# span 15 = 0.0000e+00, 0.0000e+00                
# interval = seconds: 0.25
# start_time = Jan 25 2024 13:55:48 [Instrument's time stamp, header]
# bad_flag = -9.990e-29
# <Sensors count="7" >
#   <sensor Channel="1" >
#     <!-- Count, Temperature -->
#     <TemperatureSensor SensorID="58" >
#       <SerialNumber>4268</SerialNumber>
#       <CalibrationDate>06-Dec-05</CalibrationDate>
#       <A0>1.16174900e-003</A0>
#       <A1>2.89177900e-004</A1>
#       <A2>-3.39356000e-006</A2>
#       <A3>2.88931900e-007</A3>
#       <Slope>1.00000000</Slope>
#       <Offset>0.0000</Offset>
#     </TemperatureSensor>
#   </sensor>
#   <sensor Channel="2" >
#     <!-- Frequency 0, Conductivity -->
#     <ConductivitySensor SensorID="3" >
#       <SerialNumber>4268</SerialNumber>
#       <CalibrationDate>06-Dec-05</CalibrationDate>
#       <UseG_J>1</UseG_J>
#       <!-- Cell const and series R are applicable only for wide range sensors. -->
#       <SeriesR>0.0000</SeriesR>
#       <CellConst>2000.0000</CellConst>
#       <ConductivityType>0</ConductivityType>
#       <Coefficients equation="0" >
#         <A>0.00000000e+000</A>
#         <B>0.00000000e+000</B>
#         <C>0.00000000e+000</C>
#         <D>0.00000000e+000</D>
#         <M>0.0</M>
#         <CPcor>-9.57000000e-008</CPcor>
#       </Coefficients>
#       <Coefficients equation="1" >
#         <G>-9.97781500e-001</G>
#         <H>1.52848600e-001</H>
#         <I>-4.69407800e-004</I>
#         <J>6.03980100e-005</J>
#         <CPcor>-9.57000000e-008</CPcor>
#         <CTcor>3.2500e-006</CTcor>
#         <!-- WBOTC not applicable unless ConductivityType = 1. -->
#         <WBOTC>0.00000000e+000</WBOTC>
#       </Coefficients>
#       <Slope>1.00000000</Slope>
#       <Offset>0.00000</Offset>
#     </ConductivitySensor>
#   </sensor>
#   <sensor Channel="3" >
#     <!-- Count, Pressure, Strain Gauge -->
#     <PressureSensor SensorID="46" >
#       <SerialNumber>4268</SerialNumber>
#       <CalibrationDate>22-Nov-05</CalibrationDate>
#       <PA0>1.16634000e-001</PA0>
#       <PA1>1.56200800e-003</PA1>
#       <PA2>7.52185600e-012</PA2>
#       <PTEMPA0>-7.18702600e+001</PTEMPA0>
#       <PTEMPA1>4.81936000e+001</PTEMPA1>
#       <PTEMPA2>-2.28784500e-002</PTEMPA2>
#       <PTCA0>5.24479300e+005</PTCA0>
#       <PTCA1>6.70547700e+000</PTCA1>
#       <PTCA2>-1.52562300e-001</PTCA2>
#       <PTCB0>2.48532500e+001</PTCB0>
#       <PTCB1>-3.50000000e-004</PTCB1>
#       <PTCB2>0.00000000e+000</PTCB2>
#       <Offset>0.000000</Offset>
#     </PressureSensor>
#   </sensor>
#   <sensor Channel="4" >
#     <!-- A/D voltage 0, Oxygen, SBE 43 -->
#     <OxygenSensor SensorID="38" >
#       <SerialNumber>0268</SerialNumber>
#       <CalibrationDate>29-Feb-20</CalibrationDate>
#       <Use2007Equation>1</Use2007Equation>
#       <CalibrationCoefficients equation="0" >
#         <!-- Coefficients for Owens-Millard equation. -->
#         <Boc>0.0000</Boc>
#         <Soc>3.1260e-001</Soc>
#         <offset>-0.4337</offset>
#         <Pcor>1.35e-004</Pcor>
#         <Tcor>0.0023</Tcor>
#         <Tau>0.0</Tau>
#       </CalibrationCoefficients>
#       <CalibrationCoefficients equation="1" >
#         <!-- Coefficients for Sea-Bird equation - SBE calibration in 2007 and later. -->
#         <Soc>5.4910e-001</Soc>
#         <offset>-0.4386</offset>
#         <A>-3.6337e-003</A>
#         <B> 1.0518e-004</B>
#         <C>-1.0368e-006</C>
#         <D0> 2.5826e+000</D0>
#         <D1> 1.92634e-004</D1>
#         <D2>-4.64803e-002</D2>
#         <E> 3.6000e-002</E>
#         <Tau20> 1.2800</Tau20>
#         <H1>-3.3000e-002</H1>
#         <H2> 5.0000e+003</H2>
#         <H3> 1.4500e+003</H3>
#       </CalibrationCoefficients>
#     </OxygenSensor>
#   </sensor>
#   <sensor Channel="5" >
#     <!-- A/D voltage 1, Transmissometer, Chelsea/Seatech -->
#     <TransChelseaSeatechWetlabCStarSensor SensorID="59" >
#       <SerialNumber>CST-612PR</SerialNumber>
#       <CalibrationDate>6/27/02</CalibrationDate>
#       <M>19.4066</M>
#       <B>-1.1062</B>
#       <PathLength>0.250</PathLength>
#     </TransChelseaSeatechWetlabCStarSensor>
#   </sensor>
#   <sensor Channel="6" >
#     <!-- A/D voltage 2, Fluorometer, Chelsea Minitracka -->
#     <FluoroChelseaMinitrackaSensor SensorID="6" >
#       <SerialNumber>175011</SerialNumber>
#       <CalibrationDate>26-Mar-97</CalibrationDate>
#       <Vacetone>0.013</Vacetone>
#       <Vacetone100>3.612</Vacetone100>
#       <Offset>0.000</Offset>
#     </FluoroChelseaMinitrackaSensor>
#   </sensor>
#   <sensor Channel="7" >
#     <!-- A/D voltage 3, PAR/Irradiance, Biospherical/Licor -->
#     <PAR_BiosphericalLicorChelseaSensor SensorID="42" >
#       <SerialNumber>6404</SerialNumber>
#       <CalibrationDate>29-Nov-05</CalibrationDate>
#       <M>-0.76668700</M>
#       <B>-3.43363000</B>
#       <CalibrationConstant>3.42000000</CalibrationConstant>
#       <Multiplier>1.00000000</Multiplier>
#       <Offset>0.00000000</Offset>
#     </PAR_BiosphericalLicorChelseaSensor>
#   </sensor>
# </Sensors>
# datcnv_date = Jun 04 2024 15:04:08, 7.26.7.129 [datcnv_vars = 15]
# datcnv_in = C:\Users\ir64\OneDrive - The University of Waikato\Documents\Sampling\CTD casts\2024.01 CTD casts\2024.01 HEX files\Iola Rosa Jan124.24.hex C:\Users\ir64\OneDrive - The University of Waikato\Documents\Sampling\CTD Documents\New 4268 & 6165 con files\20200723_SBE19_4268.xmlcon
# datcnv_skipover = 0
# datcnv_ox_hysteresis_correction = yes
# datcnv_ox_tau_correction = yes
# file_type = ascii
*END*
     -0.133    23.5532    23.5588     96.662  93.875509     -0.189     7.0872     83.512    8.48640    8.46767 1.2014e+02     2.9946     2.2758    56.6117   997.4446  0.000e+00
     -0.066    23.6996    23.7053     96.026  93.539655     -0.094     7.0787     83.642    8.46309    8.44428 9.9834e+01     4.0630     2.7424    50.3782   997.4092  0.000e+00
     -0.052    23.7382    23.7439     95.794  93.387004     -0.073     7.0990     83.943    8.45697    8.43813 1.2236e+02     4.1203     2.3844    55.0955   997.3997  0.000e+00
     -0.031    23.7341    23.7398     95.802  93.387006     -0.044     7.1394     84.414    8.45762    8.43879 1.0763e+02     4.2156     2.3113    56.1112   997.4008  0.000e+00
     -0.011    23.7390    23.7447     95.792  93.387004     -0.016     7.1876     84.991    8.45684    8.43800 1.3593e+02     4.3344     2.2307    57.2543   997.3997  0.000e+00
     -0.004    23.7478    23.7535     95.430  93.051200     -0.006     7.2362     85.580    8.45545    8.43660 1.6787e+02     4.2877     2.6095    52.0809   997.3975  0.000e+00
     -0.014    23.7454    23.7511     95.372  92.990146     -0.020     7.2836     86.137    8.45583    8.43699 1.7326e+02     4.3004     2.6893    51.0519   997.3980  0.000e+00
     -0.030    23.7375    23.7432     95.200  92.806987     -0.042     7.3320     86.697    8.45710    8.43826 1.6520e+02     4.3471     2.4466    54.2456   997.3998  0.000e+00
     -0.037    23.6933    23.6990     95.286  92.807000     -0.053     7.3728     87.106    8.46410    8.44529 1.6257e+02     4.3153     2.1986    57.7147   997.4106  0.000e+00
     -0.025    23.6630    23.6687     95.597  93.051225     -0.036     7.4001     87.380    8.46892    8.45012 1.2256e+02     4.3344     2.1554    58.3425   997.4181  0.000e+00
      0.014    23.6736    23.6793     95.921  93.387024      0.020     7.4091     87.504    8.46722    8.44842 1.0177e+02     4.4531     2.1471    58.4625   997.4158  0.000e+00
      0.064    23.7046    23.7103     96.016  93.539655      0.091     7.4090     87.553    8.46230    8.44348 1.0476e+02     4.5294     2.1253    58.7823   997.4085  0.000e+00
      0.090    23.7330    23.7387     95.710  93.295424      0.128     7.4123     87.639    8.45780    8.43896 9.1300e+01     4.6396     2.1114    58.9866   997.4016  0.000e+00
      0.078    23.7493    23.7550     95.615  93.234364      0.111     7.4337     87.919    8.45520    8.43635 1.0454e+02     4.8029     2.1178    58.8933   997.3975  0.000e+00
      0.058    23.7698    23.7755     95.825  93.478579      0.083     7.5437     89.253    8.45195    8.43309 9.4319e+01     4.8559     2.1077    59.0414   997.3925  0.000e+00
      0.043    23.7975    23.8032     95.833  93.539626      0.061     7.6658     90.745    8.44757    8.42869 9.8494e+01     4.7711     2.0943    59.2398   997.3857  0.000e+00
      0.043    23.8168    23.8226     95.889  93.631204      0.061     7.7378     91.631    8.44450    8.42562 8.7470e+01     4.7732     2.0927    59.2635   997.3809  0.000e+00
      0.060    23.8231    23.8288     95.939  93.692259      0.086     7.7389     91.655    8.44351    8.42462 1.0509e+02     4.7435     2.1001    59.1539   997.3795  0.000e+00
      0.080    23.8279    23.8336     95.961  93.722786      0.114     7.6668     90.809    8.44276    8.42386 8.3342e+01     4.7371     2.1106    58.9984   997.3784  0.000e+00
      0.091    23.8321    23.8378     95.859  93.631200      0.130     7.5663     89.625    8.44209    8.42320 1.0608e+02     4.7350     2.1226    58.8222   997.3774  0.000e+00
      0.085    23.8319    23.8376     95.766  93.539616      0.120     7.4366     88.090    8.44212    8.42323 9.8066e+01     4.7880     2.1089    59.0236   997.3774  0.000e+00
      0.071    23.8301    23.8358     95.613  93.386977      0.102     7.2817     86.251    8.44241    8.42352 1.1408e+02     4.8135     2.1094    59.0162   997.3777  0.000e+00
      0.063    23.8358    23.8416     95.696  93.478559      0.089     7.1347     84.519    8.44150    8.42260 1.1468e+02     4.8453     2.1246    58.7926   997.3763  0.000e+00
      0.063    23.8480    23.8537     95.734  93.539611      0.089     7.0093     83.053    8.43959    8.42068 1.0650e+02     4.8283     2.1317    58.6890   997.3734  0.000e+00
      0.069    23.8575    23.8632     95.653  93.478552      0.099     6.9113     81.906    8.43808    8.41917 1.1973e+02     4.8728     2.1329    58.6712   997.3710  0.000e+00
      0.078    23.8564    23.8621     95.468  93.295387      0.111     6.8348     80.998    8.43826    8.41935 1.1252e+02     4.8983     2.1921    57.8095   997.3713  0.000e+00
      0.086    23.8447    23.8504     95.428  93.234335      0.122     6.7647     80.150    8.44010    8.42120 1.2431e+02     4.9746     2.1225    58.8237   997.3741  0.000e+00
      0.079    23.8302    23.8359     95.269  93.051176      0.113     6.6994     79.355    8.44240    8.42351 1.2042e+02     4.9682     2.1265    58.7645   997.3776  0.000e+00
      0.062    23.8243    23.8300     95.531  93.295396      0.088     6.6178     78.379    8.44333    8.42444 1.1978e+02     5.0000     2.1173    58.9007   997.3791  0.000e+00
      0.048    23.8318    23.8375     95.610  93.386977      0.069     6.5313     77.365    8.44214    8.42324 1.3426e+02     5.0318     2.1048    59.0843   997.3772  0.000e+00
      0.058    23.8444    23.8501     95.742  93.539612      0.083     6.4522     76.446    8.44015    8.42125 1.1103e+02     5.1272     2.1119    58.9792   997.3742  0.000e+00
      0.095    23.8482    23.8539     95.734  93.539611      0.134     6.3910     75.727    8.43954    8.42064 1.1063e+02     4.9428     2.1146    58.9407   997.3734  0.000e+00
      0.130    23.8355    23.8412     95.196  92.990120      0.184     6.3862     75.651    8.44157    8.42267 1.1314e+02     4.9110     2.1249    58.7882   997.3765  0.000e+00
      0.142    23.8227    23.8284     95.221  92.990124      0.202     6.4119     75.938    8.44360    8.42471 1.1319e+02     4.8919     2.0981    59.1835   997.3797  0.000e+00
      0.159    23.7952    23.8009     95.338  93.051187      0.227     6.5047     76.998    8.44795    8.42907 1.1587e+02     4.9407     2.1076    59.0429   997.3866  0.000e+00
      0.171    23.7563    23.7620     95.257  92.898564      0.244     6.6412     78.556    8.45410    8.43525 1.1106e+02     4.9682     2.1225    58.8237   997.3961  0.000e+00
      0.175    23.7268    23.7325     95.377  92.959627      0.249     6.7843     80.204    8.45878    8.43995 1.1728e+02     5.0339     2.1060    59.0665   997.4034  0.000e+00
      0.166    23.7195    23.7252     95.486  93.051210      0.236     6.8965     81.520    8.45994    8.44111 1.3131e+02     5.0869     2.1154    58.9289   997.4051  0.000e+00
      0.151    23.7351    23.7408     95.549  93.142787      0.214     6.9701     82.413    8.45746    8.43862 1.2219e+02     5.1081     2.1023    59.1213   997.4013  0.000e+00
      0.146    23.7595    23.7652     95.595  93.234362      0.208     6.9892     82.677    8.45359    8.43473 1.2116e+02     5.0212     2.0985    59.1776   997.3953  0.000e+00
      0.153    23.7869    23.7926     95.698  93.386991      0.217     6.9489     82.242    8.44924    8.43037 1.2329e+02     5.0000     2.1012    59.1376   997.3887  0.000e+00
      0.166    23.8069    23.8126     95.565  93.295402      0.236     6.8720     81.363    8.44608    8.42720 1.1986e+02     5.0021     2.1110    58.9925   997.3838  0.000e+00
      0.174    23.8081    23.8139     95.312  93.051183      0.247     6.7646     80.093    8.44589    8.42701 1.1736e+02     5.0254     2.0932    59.2561   997.3835  0.000e+00
      0.171    23.7991    23.8048     95.017  92.745917      0.244     6.6486     78.706    8.44733    8.42845 1.2898e+02     4.9640     2.1077    59.0414   997.3856  0.000e+00
      0.160    23.8065    23.8122     95.003  92.745914      0.228     6.5375     77.402    8.44615    8.42727 1.1807e+02     4.9513     2.1104    59.0014   997.3837  0.000e+00
      0.155    23.8181    23.8238     95.230  92.990126      0.220     6.4359     76.215    8.44432    8.42543 1.2369e+02     4.9809     2.1079    59.0384   997.3809  0.000e+00
      0.154    23.8249    23.8306     95.467  93.234342      0.219     6.3501     75.210    8.44324    8.42434 1.1896e+02     5.0021     2.1062    59.0636   997.3793  0.000e+00
      0.156    23.8389    23.8446     95.596  93.386976      0.222     6.2777     74.371    8.44102    8.42212 1.2922e+02     4.9979     2.1245    58.7941   997.3759  0.000e+00
      0.162    23.8473    23.8530     95.579  93.386973      0.230     6.2287     73.803    8.43969    8.42078 1.2468e+02     5.0085     2.1066    59.0577   997.3739  0.000e+00
      0.165    23.8419    23.8477     95.434  93.234337      0.234     6.1979     73.431    8.44054    8.42164 1.2851e+02     5.0170     2.0905    59.2960   997.3752  0.000e+00
      0.164    23.8242    23.8299     95.281  93.051178      0.233     6.1736     73.118    8.44335    8.42446 1.1943e+02     5.0382     2.1020    59.1258   997.3795  0.000e+00
      0.160    23.8119    23.8176     95.305  93.051182      0.228     6.1482     72.801    8.44530    8.42641 1.2650e+02     5.0191     2.1227    58.8208   997.3825  0.000e+00
      0.162    23.8125    23.8183     95.491  93.234346      0.230     6.1194     72.460    8.44519    8.42631 1.2854e+02     5.0594     2.0942    59.2413   997.3824  0.000e+00
      0.162    23.8200    23.8257     95.477  93.234343      0.230     6.0926     72.152    8.44402    8.42513 1.3011e+02     5.0784     2.0901    59.3020   997.3806  0.000e+00
      0.163    23.8295    23.8352     95.552  93.325923      0.231     6.0771     71.983    8.44251    8.42362 1.2506e+02     5.0890     2.0951    59.2279   997.3783  0.000e+00
      0.164    23.8384    23.8441     95.597  93.386976      0.233     6.0857     72.096    8.44111    8.42221 1.3819e+02     5.1569     2.1038    59.0991   997.3761  0.000e+00
      0.167    23.8449    23.8506     95.584  93.386974      0.238     6.1111     72.406    8.44007    8.42117 1.2574e+02     5.2374     2.1007    59.1450   997.3745  0.000e+00
      0.165    23.8469    23.8526     95.487  93.295390      0.234     6.1569     72.951    8.43976    8.42086 1.4303e+02     5.2820     2.0872    59.3449   997.3740  0.000e+00
      0.162    23.8416    23.8473     95.434  93.234337      0.230     6.2020     73.478    8.44060    8.42170 1.2414e+02     5.3095     2.0855    59.3701   997.3752  0.000e+00
      0.158    23.8297    23.8355     95.520  93.295395      0.225     6.2342     73.843    8.44247    8.42357 1.2819e+02     5.2565     2.1044    59.0902   997.3782  0.000e+00
